[Header]
Application Name	LabSolutions
Version	5.98SP1
Data File Name	C:\LabSolutions\Data\spiroindane_pyrrolidines\level1_03302021_1.lcd
Output Date	4/9/2021
Output Time	4:33:07 PM

[Configuration]
Instrument Name	MDCM-420DJB2-Instrument1
Instrument #	1
Line #	1
# of Detectors	1
Detector ID	Detector A
Detector Name	Detector A
# of Channels	2

[LC Chromatogram(Detector A-Ch1)]
Interval(msec)	500
# of Points	961
Start Time(min)	0.000
End Time(min)	8.000
Intensity Units	mAU
Intensity Multiplier	0.001
Wavelength(nm)	254nm
R.Time (min)	Intensity
0.00000	-11
0.00833	-11
0.01667	-0
0.02500	-1
0.03333	-3
0.04167	-4
0.05000	-4
0.05833	-3
0.06667	-1
0.07500	1
0.08333	3
0.09167	3
0.10000	1
0.10833	-0
0.11667	-2
0.12500	-3
0.13333	-3
0.14167	-3
0.15000	-2
0.15833	-1
0.16667	0
0.17500	1
0.18333	3
0.19167	3
0.20000	4
0.20833	3
0.21667	3
0.22500	2
0.23333	1
0.24167	-1
0.25000	-2
0.25833	-3
0.26667	-4
0.27500	-4
0.28333	-3
0.29167	-3
0.30000	-2
0.30833	-2
0.31667	-2
0.32500	-2
0.33333	-0
0.34167	3
0.35000	6
0.35833	11
0.36667	18
0.37500	27
0.38333	37
0.39167	48
0.40000	58
0.40833	64
0.41667	66
0.42500	66
0.43333	68
0.44167	71
0.45000	74
0.45833	78
0.46667	79
0.47500	78
0.48333	75
0.49167	72
0.50000	70
0.50833	67
0.51667	65
0.52500	63
0.53333	63
0.54167	78
0.55000	123
0.55833	214
0.56667	380
0.57500	613
0.58333	831
0.59167	997
0.60000	1082
0.60833	1057
0.61667	947
0.62500	816
0.63333	687
0.64167	571
0.65000	467
0.65833	374
0.66667	295
0.67500	227
0.68333	174
0.69167	131
0.70000	99
0.70833	76
0.71667	61
0.72500	52
0.73333	47
0.74167	44
0.75000	42
0.75833	40
0.76667	38
0.77500	37
0.78333	36
0.79167	35
0.80000	33
0.80833	32
0.81667	31
0.82500	31
0.83333	31
0.84167	32
0.85000	33
0.85833	34
0.86667	35
0.87500	35
0.88333	34
0.89167	34
0.90000	32
0.90833	30
0.91667	27
0.92500	25
0.93333	25
0.94167	27
0.95000	28
0.95833	29
0.96667	28
0.97500	26
0.98333	23
0.99167	21
1.00000	21
1.00833	21
1.01667	22
1.02500	22
1.03333	23
1.04167	23
1.05000	23
1.05833	24
1.06667	25
1.07500	24
1.08333	22
1.09167	20
1.10000	17
1.10833	15
1.11667	14
1.12500	13
1.13333	13
1.14167	13
1.15000	13
1.15833	12
1.16667	11
1.17500	10
1.18333	10
1.19167	10
1.20000	11
1.20833	11
1.21667	11
1.22500	11
1.23333	10
1.24167	10
1.25000	10
1.25833	8
1.26667	7
1.27500	5
1.28333	3
1.29167	2
1.30000	1
1.30833	0
1.31667	1
1.32500	3
1.33333	6
1.34167	9
1.35000	13
1.35833	16
1.36667	20
1.37500	25
1.38333	30
1.39167	35
1.40000	40
1.40833	45
1.41667	49
1.42500	54
1.43333	60
1.44167	67
1.45000	75
1.45833	84
1.46667	91
1.47500	97
1.48333	102
1.49167	107
1.50000	113
1.50833	119
1.51667	127
1.52500	134
1.53333	143
1.54167	152
1.55000	164
1.55833	176
1.56667	189
1.57500	205
1.58333	221
1.59167	236
1.60000	252
1.60833	267
1.61667	284
1.62500	300
1.63333	318
1.64167	336
1.65000	356
1.65833	376
1.66667	397
1.67500	419
1.68333	441
1.69167	465
1.70000	490
1.70833	516
1.71667	544
1.72500	572
1.73333	602
1.74167	633
1.75000	665
1.75833	698
1.76667	730
1.77500	764
1.78333	797
1.79167	830
1.80000	862
1.80833	893
1.81667	922
1.82500	949
1.83333	974
1.84167	996
1.85000	1012
1.85833	1023
1.86667	1026
1.87500	1022
1.88333	1019
1.89167	1020
1.90000	1029
1.90833	1049
1.91667	1080
1.92500	1117
1.93333	1159
1.94167	1202
1.95000	1246
1.95833	1289
1.96667	1327
1.97500	1362
1.98333	1393
1.99167	1421
2.00000	1445
2.00833	1463
2.01667	1478
2.02500	1484
2.03333	1483
2.04167	1478
2.05000	1471
2.05833	1467
2.06667	1468
2.07500	1475
2.08333	1485
2.09167	1496
2.10000	1506
2.10833	1514
2.11667	1518
2.12500	1519
2.13333	1518
2.14167	1517
2.15000	1514
2.15833	1511
2.16667	1507
2.17500	1502
2.18333	1498
2.19167	1495
2.20000	1495
2.20833	1497
2.21667	1504
2.22500	1517
2.23333	1541
2.24167	1581
2.25000	1649
2.25833	1753
2.26667	1904
2.27500	2116
2.28333	2385
2.29167	2727
2.30000	3114
2.30833	3529
2.31667	3923
2.32500	4157
2.33333	4180
2.34167	4001
2.35000	3614
2.35833	3118
2.36667	2658
2.37500	2271
2.38333	1988
2.39167	1804
2.40000	1694
2.40833	1633
2.41667	1604
2.42500	1595
2.43333	1598
2.44167	1607
2.45000	1620
2.45833	1639
2.46667	1670
2.47500	1720
2.48333	1806
2.49167	1946
2.50000	2148
2.50833	2430
2.51667	2779
2.52500	3138
2.53333	3484
2.54167	3711
2.55000	3735
2.55833	3574
2.56667	3262
2.57500	2835
2.58333	2425
2.59167	2083
2.60000	1824
2.60833	1648
2.61667	1537
2.62500	1469
2.63333	1430
2.64167	1408
2.65000	1396
2.65833	1391
2.66667	1390
2.67500	1391
2.68333	1393
2.69167	1395
2.70000	1398
2.70833	1398
2.71667	1396
2.72500	1391
2.73333	1384
2.74167	1378
2.75000	1373
2.75833	1371
2.76667	1375
2.77500	1388
2.78333	1412
2.79167	1451
2.80000	1501
2.80833	1563
2.81667	1633
2.82500	1697
2.83333	1750
2.84167	1781
2.85000	1784
2.85833	1762
2.86667	1722
2.87500	1666
2.88333	1609
2.89167	1554
2.90000	1506
2.90833	1469
2.91667	1440
2.92500	1421
2.93333	1408
2.94167	1401
2.95000	1398
2.95833	1398
2.96667	1400
2.97500	1402
2.98333	1404
2.99167	1405
3.00000	1405
3.00833	1404
3.01667	1404
3.02500	1404
3.03333	1404
3.04167	1405
3.05000	1406
3.05833	1408
3.06667	1409
3.07500	1411
3.08333	1413
3.09167	1414
3.10000	1415
3.10833	1414
3.11667	1412
3.12500	1409
3.13333	1403
3.14167	1398
3.15000	1393
3.15833	1391
3.16667	1390
3.17500	1390
3.18333	1391
3.19167	1390
3.20000	1387
3.20833	1382
3.21667	1374
3.22500	1365
3.23333	1355
3.24167	1346
3.25000	1337
3.25833	1328
3.26667	1321
3.27500	1314
3.28333	1308
3.29167	1303
3.30000	1298
3.30833	1296
3.31667	1296
3.32500	1297
3.33333	1300
3.34167	1302
3.35000	1306
3.35833	1309
3.36667	1314
3.37500	1320
3.38333	1326
3.39167	1332
3.40000	1338
3.40833	1343
3.41667	1348
3.42500	1352
3.43333	1356
3.44167	1359
3.45000	1359
3.45833	1358
3.46667	1356
3.47500	1355
3.48333	1356
3.49167	1361
3.50000	1370
3.50833	1389
3.51667	1421
3.52500	1475
3.53333	1563
3.54167	1708
3.55000	1947
3.55833	2328
3.56667	2946
3.57500	3899
3.58333	5334
3.59167	7470
3.60000	10391
3.60833	14362
3.61667	19421
3.62500	25296
3.63333	32107
3.64167	38895
3.65000	45243
3.65833	50557
3.66667	53813
3.67500	54863
3.68333	53602
3.69167	49900
3.70000	44588
3.70833	38257
3.71667	31350
3.72500	24905
3.73333	19020
3.74167	14119
3.75000	10273
3.75833	7343
3.76667	5270
3.77500	3835
3.78333	2890
3.79167	2289
3.80000	1915
3.80833	1692
3.81667	1560
3.82500	1485
3.83333	1445
3.84167	1424
3.85000	1416
3.85833	1413
3.86667	1413
3.87500	1414
3.88333	1412
3.89167	1408
3.90000	1400
3.90833	1391
3.91667	1380
3.92500	1367
3.93333	1353
3.94167	1339
3.95000	1326
3.95833	1314
3.96667	1305
3.97500	1297
3.98333	1290
3.99167	1283
4.00000	1277
4.00833	1273
4.01667	1271
4.02500	1270
4.03333	1271
4.04167	1272
4.05000	1273
4.05833	1273
4.06667	1273
4.07500	1275
4.08333	1278
4.09167	1282
4.10000	1286
4.10833	1290
4.11667	1293
4.12500	1295
4.13333	1295
4.14167	1293
4.15000	1290
4.15833	1285
4.16667	1280
4.17500	1274
4.18333	1267
4.19167	1261
4.20000	1254
4.20833	1248
4.21667	1242
4.22500	1236
4.23333	1231
4.24167	1228
4.25000	1225
4.25833	1222
4.26667	1221
4.27500	1221
4.28333	1221
4.29167	1222
4.30000	1222
4.30833	1223
4.31667	1222
4.32500	1220
4.33333	1218
4.34167	1217
4.35000	1215
4.35833	1215
4.36667	1215
4.37500	1215
4.38333	1215
4.39167	1215
4.40000	1213
4.40833	1212
4.41667	1212
4.42500	1211
4.43333	1211
4.44167	1210
4.45000	1210
4.45833	1210
4.46667	1211
4.47500	1212
4.48333	1214
4.49167	1215
4.50000	1215
4.50833	1214
4.51667	1213
4.52500	1212
4.53333	1211
4.54167	1209
4.55000	1207
4.55833	1205
4.56667	1203
4.57500	1202
4.58333	1201
4.59167	1201
4.60000	1201
4.60833	1200
4.61667	1197
4.62500	1194
4.63333	1191
4.64167	1189
4.65000	1190
4.65833	1192
4.66667	1194
4.67500	1196
4.68333	1197
4.69167	1196
4.70000	1194
4.70833	1191
4.71667	1189
4.72500	1188
4.73333	1189
4.74167	1190
4.75000	1191
4.75833	1192
4.76667	1192
4.77500	1192
4.78333	1190
4.79167	1189
4.80000	1189
4.80833	1189
4.81667	1189
4.82500	1189
4.83333	1189
4.84167	1189
4.85000	1188
4.85833	1188
4.86667	1187
4.87500	1187
4.88333	1188
4.89167	1188
4.90000	1188
4.90833	1188
4.91667	1187
4.92500	1186
4.93333	1185
4.94167	1186
4.95000	1189
4.95833	1193
4.96667	1196
4.97500	1198
4.98333	1200
4.99167	1201
5.00000	1200
5.00833	1200
5.01667	1200
5.02500	1201
5.03333	1202
5.04167	1204
5.05000	1206
5.05833	1208
5.06667	1210
5.07500	1211
5.08333	1210
5.09167	1208
5.10000	1206
5.10833	1205
5.11667	1204
5.12500	1204
5.13333	1205
5.14167	1205
5.15000	1205
5.15833	1204
5.16667	1202
5.17500	1200
5.18333	1199
5.19167	1199
5.20000	1200
5.20833	1203
5.21667	1205
5.22500	1208
5.23333	1212
5.24167	1216
5.25000	1222
5.25833	1229
5.26667	1240
5.27500	1255
5.28333	1276
5.29167	1306
5.30000	1347
5.30833	1402
5.31667	1476
5.32500	1572
5.33333	1699
5.34167	1859
5.35000	2062
5.35833	2311
5.36667	2610
5.37500	2971
5.38333	3378
5.39167	3849
5.40000	4361
5.40833	4904
5.41667	5478
5.42500	6032
5.43333	6573
5.44167	7055
5.45000	7458
5.45833	7772
5.46667	7960
5.47500	8021
5.48333	7953
5.49167	7744
5.50000	7424
5.50833	7004
5.51667	6496
5.52500	5953
5.53333	5370
5.54167	4798
5.55000	4250
5.55833	3735
5.56667	3283
5.57500	2882
5.58333	2549
5.59167	2275
5.60000	2056
5.60833	1891
5.61667	1766
5.62500	1677
5.63333	1615
5.64167	1573
5.65000	1545
5.65833	1527
5.66667	1515
5.67500	1507
5.68333	1500
5.69167	1492
5.70000	1484
5.70833	1473
5.71667	1460
5.72500	1447
5.73333	1432
5.74167	1419
5.75000	1407
5.75833	1396
5.76667	1387
5.77500	1379
5.78333	1372
5.79167	1366
5.80000	1360
5.80833	1355
5.81667	1350
5.82500	1346
5.83333	1344
5.84167	1343
5.85000	1344
5.85833	1345
5.86667	1348
5.87500	1352
5.88333	1356
5.89167	1360
5.90000	1364
5.90833	1367
5.91667	1371
5.92500	1374
5.93333	1379
5.94167	1385
5.95000	1391
5.95833	1398
5.96667	1406
5.97500	1416
5.98333	1427
5.99167	1443
6.00000	1462
6.00833	1489
6.01667	1525
6.02500	1571
6.03333	1633
6.04167	1712
6.05000	1814
6.05833	1941
6.06667	2093
6.07500	2277
6.08333	2481
6.09167	2710
6.10000	2951
6.10833	3194
6.11667	3433
6.12500	3641
6.13333	3814
6.14167	3935
6.15000	3990
6.15833	3981
6.16667	3904
6.17500	3762
6.18333	3577
6.19167	3351
6.20000	3107
6.20833	2864
6.21667	2624
6.22500	2411
6.23333	2221
6.24167	2063
6.25000	1936
6.25833	1838
6.26667	1766
6.27500	1713
6.28333	1675
6.29167	1648
6.30000	1629
6.30833	1616
6.31667	1608
6.32500	1603
6.33333	1601
6.34167	1601
6.35000	1602
6.35833	1603
6.36667	1604
6.37500	1605
6.38333	1607
6.39167	1609
6.40000	1611
6.40833	1613
6.41667	1613
6.42500	1614
6.43333	1614
6.44167	1614
6.45000	1615
6.45833	1616
6.46667	1617
6.47500	1619
6.48333	1621
6.49167	1622
6.50000	1625
6.50833	1626
6.51667	1628
6.52500	1630
6.53333	1634
6.54167	1638
6.55000	1642
6.55833	1647
6.56667	1652
6.57500	1657
6.58333	1667
6.59167	1683
6.60000	1715
6.60833	1772
6.61667	1866
6.62500	2019
6.63333	2257
6.64167	2600
6.65000	3097
6.65833	3756
6.66667	4591
6.67500	5627
6.68333	6764
6.69167	8004
6.70000	9214
6.70833	10254
6.71667	11089
6.72500	11578
6.73333	11653
6.74167	11304
6.75000	10601
6.75833	9560
6.76667	8339
6.77500	7107
6.78333	6010
6.79167	5027
6.80000	4177
6.80833	3496
6.81667	2957
6.82500	2561
6.83333	2281
6.84167	2090
6.85000	1969
6.85833	1893
6.86667	1850
6.87500	1830
6.88333	1823
6.89167	1823
6.90000	1827
6.90833	1832
6.91667	1837
6.92500	1841
6.93333	1846
6.94167	1851
6.95000	1854
6.95833	1855
6.96667	1855
6.97500	1855
6.98333	1856
6.99167	1860
7.00000	1868
7.00833	1880
7.01667	1898
7.02500	1921
7.03333	1952
7.04167	1989
7.05000	2033
7.05833	2082
7.06667	2130
7.07500	2176
7.08333	2212
7.09167	2233
7.10000	2239
7.10833	2228
7.11667	2200
7.12500	2162
7.13333	2115
7.14167	2067
7.15000	2023
7.15833	1986
7.16667	1957
7.17500	1937
7.18333	1924
7.19167	1919
7.20000	1920
7.20833	1925
7.21667	1934
7.22500	1944
7.23333	1953
7.24167	1961
7.25000	1968
7.25833	1974
7.26667	1976
7.27500	1973
7.28333	1967
7.29167	1958
7.30000	1947
7.30833	1935
7.31667	1923
7.32500	1913
7.33333	1903
7.34167	1894
7.35000	1889
7.35833	1886
7.36667	1884
7.37500	1884
7.38333	1884
7.39167	1883
7.40000	1882
7.40833	1882
7.41667	1882
7.42500	1883
7.43333	1884
7.44167	1885
7.45000	1887
7.45833	1887
7.46667	1887
7.47500	1887
7.48333	1888
7.49167	1890
7.50000	1893
7.50833	1896
7.51667	1898
7.52500	1899
7.53333	1900
7.54167	1900
7.55000	1901
7.55833	1903
7.56667	1904
7.57500	1905
7.58333	1903
7.59167	1901
7.60000	1899
7.60833	1899
7.61667	1902
7.62500	1909
7.63333	1922
7.64167	1938
7.65000	1958
7.65833	1982
7.66667	2007
7.67500	2035
7.68333	2061
7.69167	2084
7.70000	2102
7.70833	2113
7.71667	2115
7.72500	2108
7.73333	2092
7.74167	2070
7.75000	2044
7.75833	2015
7.76667	1989
7.77500	1965
7.78333	1945
7.79167	1931
7.80000	1921
7.80833	1919
7.81667	1922
7.82500	1930
7.83333	1942
7.84167	1956
7.85000	1971
7.85833	1985
7.86667	1997
7.87500	2006
7.88333	2012
7.89167	2016
7.90000	2017
7.90833	2016
7.91667	2013
7.92500	2009
7.93333	2004
7.94167	1999
7.95000	1994
7.95833	1989
7.96667	1984
7.97500	1977
7.98333	1970
7.99167	1962
8.00000	1956

[LC Chromatogram(Detector A-Ch2)]
Interval(msec)	500
# of Points	961
Start Time(min)	0.000
End Time(min)	8.000
Intensity Units	mAU
Intensity Multiplier	0.001
Wavelength(nm)	220nm
R.Time (min)	Intensity
0.00000	-267
0.00833	-267
0.01667	0
0.02500	-3
0.03333	-9
0.04167	-13
0.05000	-17
0.05833	-20
0.06667	-25
0.07500	-32
0.08333	-40
0.09167	-48
0.10000	-54
0.10833	-59
0.11667	-67
0.12500	-77
0.13333	-83
0.14167	-80
0.15000	-66
0.15833	-44
0.16667	-17
0.17500	7
0.18333	26
0.19167	39
0.20000	50
0.20833	58
0.21667	68
0.22500	79
0.23333	94
0.24167	112
0.25000	128
0.25833	136
0.26667	134
0.27500	128
0.28333	121
0.29167	117
0.30000	124
0.30833	138
0.31667	150
0.32500	158
0.33333	159
0.34167	154
0.35000	147
0.35833	149
0.36667	161
0.37500	181
0.38333	203
0.39167	201
0.40000	145
0.40833	59
0.41667	24
0.42500	74
0.43333	200
0.44167	399
0.45000	608
0.45833	730
0.46667	754
0.47500	721
0.48333	656
0.49167	591
0.50000	545
0.50833	520
0.51667	503
0.52500	498
0.53333	549
0.54167	702
0.55000	977
0.55833	1410
0.56667	1880
0.57500	1869
0.58333	1066
0.59167	-385
0.60000	-2377
0.60833	-4558
0.61667	-6128
0.62500	-6849
0.63333	-6840
0.64167	-6207
0.65000	-5216
0.65833	-4161
0.66667	-3131
0.67500	-2256
0.68333	-1543
0.69167	-997
0.70000	-613
0.70833	-352
0.71667	-183
0.72500	-72
0.73333	-1
0.74167	46
0.75000	78
0.75833	97
0.76667	108
0.77500	109
0.78333	100
0.79167	85
0.80000	71
0.80833	59
0.81667	54
0.82500	55
0.83333	60
0.84167	68
0.85000	79
0.85833	95
0.86667	117
0.87500	140
0.88333	162
0.89167	178
0.90000	186
0.90833	185
0.91667	184
0.92500	185
0.93333	191
0.94167	203
0.95000	220
0.95833	234
0.96667	244
0.97500	246
0.98333	241
0.99167	231
1.00000	222
1.00833	213
1.01667	207
1.02500	203
1.03333	203
1.04167	210
1.05000	222
1.05833	239
1.06667	258
1.07500	270
1.08333	271
1.09167	264
1.10000	255
1.10833	246
1.11667	238
1.12500	232
1.13333	227
1.14167	225
1.15000	222
1.15833	217
1.16667	209
1.17500	198
1.18333	181
1.19167	168
1.20000	165
1.20833	172
1.21667	185
1.22500	202
1.23333	213
1.24167	213
1.25000	203
1.25833	184
1.26667	158
1.27500	126
1.28333	87
1.29167	42
1.30000	-11
1.30833	-73
1.31667	-142
1.32500	-221
1.33333	-305
1.34167	-394
1.35000	-491
1.35833	-596
1.36667	-714
1.37500	-838
1.38333	-974
1.39167	-1114
1.40000	-1259
1.40833	-1410
1.41667	-1567
1.42500	-1737
1.43333	-1914
1.44167	-2104
1.45000	-2305
1.45833	-2516
1.46667	-2744
1.47500	-2970
1.48333	-3207
1.49167	-3474
1.50000	-3747
1.50833	-4005
1.51667	-4250
1.52500	-4513
1.53333	-4800
1.54167	-5095
1.55000	-5372
1.55833	-5638
1.56667	-5908
1.57500	-6176
1.58333	-6455
1.59167	-6739
1.60000	-7030
1.60833	-7332
1.61667	-7628
1.62500	-7927
1.63333	-8221
1.64167	-8524
1.65000	-8838
1.65833	-9157
1.66667	-9490
1.67500	-9813
1.68333	-10130
1.69167	-10437
1.70000	-10736
1.70833	-11035
1.71667	-11324
1.72500	-11617
1.73333	-11902
1.74167	-12185
1.75000	-12470
1.75833	-12762
1.76667	-13073
1.77500	-13389
1.78333	-13723
1.79167	-14071
1.80000	-14439
1.80833	-14836
1.81667	-15248
1.82500	-15691
1.83333	-16141
1.84167	-16601
1.85000	-17070
1.85833	-17538
1.86667	-18024
1.87500	-18512
1.88333	-19025
1.89167	-19546
1.90000	-20072
1.90833	-20608
1.91667	-21128
1.92500	-21652
1.93333	-22161
1.94167	-22668
1.95000	-23173
1.95833	-23670
1.96667	-24179
1.97500	-24684
1.98333	-25209
1.99167	-25737
2.00000	-26268
2.00833	-26812
2.01667	-27356
2.02500	-27926
2.03333	-28494
2.04167	-29070
2.05000	-29644
2.05833	-30192
2.06667	-30732
2.07500	-31247
2.08333	-31760
2.09167	-32263
2.10000	-32757
2.10833	-33256
2.11667	-33748
2.12500	-34258
2.13333	-34765
2.14167	-35276
2.15000	-35786
2.15833	-36275
2.16667	-36760
2.17500	-37224
2.18333	-37689
2.19167	-38140
2.20000	-38574
2.20833	-38992
2.21667	-39364
2.22500	-39694
2.23333	-39944
2.24167	-40088
2.25000	-40090
2.25833	-39867
2.26667	-39358
2.27500	-38465
2.28333	-37039
2.29167	-35005
2.30000	-32153
2.30833	-28692
2.31667	-25439
2.32500	-22725
2.33333	-21502
2.34167	-22537
2.35000	-25373
2.35833	-29206
2.36667	-33605
2.37500	-37453
2.38333	-40349
2.39167	-42356
2.40000	-43646
2.40833	-44442
2.41667	-44913
2.42500	-45182
2.43333	-45322
2.44167	-45376
2.45000	-45354
2.45833	-45237
2.46667	-44991
2.47500	-44514
2.48333	-43691
2.49167	-42418
2.50000	-40491
2.50833	-37881
2.51667	-34719
2.52500	-31014
2.53333	-27742
2.54167	-25573
2.55000	-24837
2.55833	-26043
2.56667	-29079
2.57500	-32821
2.58333	-36786
2.59167	-40351
2.60000	-43038
2.60833	-44911
2.61667	-46121
2.62500	-46867
2.63333	-47315
2.64167	-47583
2.65000	-47749
2.65833	-47860
2.66667	-47944
2.67500	-48015
2.68333	-48080
2.69167	-48140
2.70000	-48195
2.70833	-48244
2.71667	-48278
2.72500	-48297
2.73333	-48304
2.74167	-48301
2.75000	-48295
2.75833	-48290
2.76667	-48288
2.77500	-48291
2.78333	-48296
2.79167	-48304
2.80000	-48308
2.80833	-48308
2.81667	-48298
2.82500	-48277
2.83333	-48255
2.84167	-48238
2.85000	-48232
2.85833	-48246
2.86667	-48281
2.87500	-48331
2.88333	-48392
2.89167	-48454
2.90000	-48509
2.90833	-48556
2.91667	-48594
2.92500	-48625
2.93333	-48652
2.94167	-48678
2.95000	-48703
2.95833	-48723
2.96667	-48740
2.97500	-48758
2.98333	-48781
2.99167	-48807
3.00000	-48837
3.00833	-48868
3.01667	-48893
3.02500	-48913
3.03333	-48931
3.04167	-48952
3.05000	-48976
3.05833	-49004
3.06667	-49037
3.07500	-49067
3.08333	-49092
3.09167	-49112
3.10000	-49127
3.10833	-49138
3.11667	-49145
3.12500	-49148
3.13333	-49143
3.14167	-49124
3.15000	-49092
3.15833	-49053
3.16667	-49007
3.17500	-48969
3.18333	-48943
3.19167	-48928
3.20000	-48924
3.20833	-48925
3.21667	-48925
3.22500	-48921
3.23333	-48913
3.24167	-48905
3.25000	-48902
3.25833	-48914
3.26667	-48945
3.27500	-48993
3.28333	-49058
3.29167	-49130
3.30000	-49198
3.30833	-49258
3.31667	-49302
3.32500	-49329
3.33333	-49343
3.34167	-49347
3.35000	-49344
3.35833	-49336
3.36667	-49323
3.37500	-49304
3.38333	-49279
3.39167	-49250
3.40000	-49219
3.40833	-49186
3.41667	-49153
3.42500	-49122
3.43333	-49101
3.44167	-49096
3.45000	-49106
3.45833	-49129
3.46667	-49162
3.47500	-49196
3.48333	-49224
3.49167	-49246
3.50000	-49262
3.50833	-49273
3.51667	-49277
3.52500	-49271
3.53333	-49246
3.54167	-49192
3.55000	-49096
3.55833	-48938
3.56667	-48693
3.57500	-48326
3.58333	-47777
3.59167	-46999
3.60000	-45889
3.60833	-44396
3.61667	-42515
3.62500	-40154
3.63333	-37574
3.64167	-34835
3.65000	-32192
3.65833	-30074
3.66667	-28577
3.67500	-27975
3.68333	-28403
3.69167	-29673
3.70000	-31687
3.70833	-34252
3.71667	-36919
3.72500	-39610
3.73333	-42018
3.74167	-44035
3.75000	-45666
3.75833	-46884
3.76667	-47781
3.77500	-48407
3.78333	-48832
3.79167	-49112
3.80000	-49281
3.80833	-49378
3.81667	-49429
3.82500	-49453
3.83333	-49462
3.84167	-49464
3.85000	-49458
3.85833	-49446
3.86667	-49427
3.87500	-49407
3.88333	-49390
3.89167	-49376
3.90000	-49371
3.90833	-49374
3.91667	-49385
3.92500	-49400
3.93333	-49417
3.94167	-49430
3.95000	-49440
3.95833	-49449
3.96667	-49459
3.97500	-49474
3.98333	-49499
3.99167	-49526
4.00000	-49550
4.00833	-49569
4.01667	-49584
4.02500	-49593
4.03333	-49600
4.04167	-49605
4.05000	-49607
4.05833	-49606
4.06667	-49602
4.07500	-49596
4.08333	-49592
4.09167	-49589
4.10000	-49587
4.10833	-49589
4.11667	-49591
4.12500	-49593
4.13333	-49593
4.14167	-49591
4.15000	-49588
4.15833	-49585
4.16667	-49586
4.17500	-49595
4.18333	-49616
4.19167	-49644
4.20000	-49675
4.20833	-49708
4.21667	-49737
4.22500	-49758
4.23333	-49774
4.24167	-49787
4.25000	-49797
4.25833	-49801
4.26667	-49798
4.27500	-49789
4.28333	-49775
4.29167	-49755
4.30000	-49735
4.30833	-49720
4.31667	-49713
4.32500	-49714
4.33333	-49723
4.34167	-49736
4.35000	-49750
4.35833	-49759
4.36667	-49762
4.37500	-49758
4.38333	-49748
4.39167	-49739
4.40000	-49737
4.40833	-49743
4.41667	-49756
4.42500	-49775
4.43333	-49793
4.44167	-49803
4.45000	-49805
4.45833	-49800
4.46667	-49791
4.47500	-49782
4.48333	-49777
4.49167	-49775
4.50000	-49775
4.50833	-49775
4.51667	-49779
4.52500	-49785
4.53333	-49791
4.54167	-49793
4.55000	-49792
4.55833	-49787
4.56667	-49780
4.57500	-49778
4.58333	-49786
4.59167	-49800
4.60000	-49816
4.60833	-49830
4.61667	-49841
4.62500	-49847
4.63333	-49848
4.64167	-49844
4.65000	-49837
4.65833	-49830
4.66667	-49823
4.67500	-49819
4.68333	-49818
4.69167	-49818
4.70000	-49818
4.70833	-49817
4.71667	-49818
4.72500	-49823
4.73333	-49828
4.74167	-49827
4.75000	-49821
4.75833	-49815
4.76667	-49813
4.77500	-49815
4.78333	-49821
4.79167	-49829
4.80000	-49835
4.80833	-49839
4.81667	-49845
4.82500	-49853
4.83333	-49861
4.84167	-49862
4.85000	-49859
4.85833	-49859
4.86667	-49864
4.87500	-49874
4.88333	-49888
4.89167	-49902
4.90000	-49911
4.90833	-49915
4.91667	-49916
4.92500	-49918
4.93333	-49920
4.94167	-49922
4.95000	-49925
4.95833	-49934
4.96667	-49952
4.97500	-49975
4.98333	-50003
4.99167	-50028
5.00000	-50048
5.00833	-50062
5.01667	-50076
5.02500	-50090
5.03333	-50103
5.04167	-50111
5.05000	-50116
5.05833	-50122
5.06667	-50130
5.07500	-50146
5.08333	-50175
5.09167	-50208
5.10000	-50238
5.10833	-50264
5.11667	-50289
5.12500	-50320
5.13333	-50355
5.14167	-50396
5.15000	-50441
5.15833	-50484
5.16667	-50525
5.17500	-50562
5.18333	-50598
5.19167	-50634
5.20000	-50670
5.20833	-50709
5.21667	-50749
5.22500	-50791
5.23333	-50829
5.24167	-50857
5.25000	-50874
5.25833	-50878
5.26667	-50867
5.27500	-50830
5.28333	-50758
5.29167	-50640
5.30000	-50458
5.30833	-50195
5.31667	-49826
5.32500	-49310
5.33333	-48634
5.34167	-47733
5.35000	-46591
5.35833	-45180
5.36667	-43426
5.37500	-41383
5.38333	-38941
5.39167	-36195
5.40000	-33161
5.40833	-29834
5.41667	-26468
5.42500	-22992
5.43333	-19712
5.44167	-16729
5.45000	-14146
5.45833	-12233
5.46667	-10988
5.47500	-10538
5.48333	-10954
5.49167	-12139
5.50000	-14096
5.50833	-16751
5.51667	-19827
5.52500	-23358
5.53333	-27003
5.54167	-30686
5.55000	-34301
5.55833	-37613
5.56667	-40698
5.57500	-43369
5.58333	-45675
5.59167	-47612
5.60000	-49170
5.60833	-50435
5.61667	-51409
5.62500	-52164
5.63333	-52735
5.64167	-53163
5.65000	-53492
5.65833	-53741
5.66667	-53941
5.67500	-54099
5.68333	-54229
5.69167	-54342
5.70000	-54447
5.70833	-54555
5.71667	-54662
5.72500	-54777
5.73333	-54886
5.74167	-54988
5.75000	-55082
5.75833	-55174
5.76667	-55268
5.77500	-55361
5.78333	-55459
5.79167	-55556
5.80000	-55648
5.80833	-55738
5.81667	-55829
5.82500	-55927
5.83333	-56030
5.84167	-56142
5.85000	-56261
5.85833	-56376
5.86667	-56491
5.87500	-56598
5.88333	-56703
5.89167	-56803
5.90000	-56900
5.90833	-56996
5.91667	-57091
5.92500	-57191
5.93333	-57292
5.94167	-57396
5.95000	-57502
5.95833	-57604
5.96667	-57707
5.97500	-57810
5.98333	-57918
5.99167	-58029
6.00000	-58140
6.00833	-58252
6.01667	-58358
6.02500	-58461
6.03333	-58554
6.04167	-58641
6.05000	-58725
6.05833	-58808
6.06667	-58894
6.07500	-58982
6.08333	-59072
6.09167	-59162
6.10000	-59247
6.10833	-59328
6.11667	-59401
6.12500	-59470
6.13333	-59541
6.14167	-59622
6.15000	-59719
6.15833	-59837
6.16667	-59980
6.17500	-60136
6.18333	-60305
6.19167	-60478
6.20000	-60652
6.20833	-60830
6.21667	-61006
6.22500	-61188
6.23333	-61364
6.24167	-61531
6.25000	-61691
6.25833	-61838
6.26667	-61981
6.27500	-62116
6.28333	-62250
6.29167	-62379
6.30000	-62504
6.30833	-62627
6.31667	-62749
6.32500	-62876
6.33333	-63002
6.34167	-63130
6.35000	-63259
6.35833	-63384
6.36667	-63511
6.37500	-63637
6.38333	-63768
6.39167	-63900
6.40000	-64031
6.40833	-64163
6.41667	-64291
6.42500	-64420
6.43333	-64547
6.44167	-64674
6.45000	-64800
6.45833	-64918
6.46667	-65034
6.47500	-65145
6.48333	-65260
6.49167	-65376
6.50000	-65496
6.50833	-65624
6.51667	-65751
6.52500	-65883
6.53333	-66013
6.54167	-66141
6.55000	-66269
6.55833	-66391
6.56667	-66513
6.57500	-66625
6.58333	-66726
6.59167	-66805
6.60000	-66846
6.60833	-66831
6.61667	-66713
6.62500	-66447
6.63333	-65965
6.64167	-65161
6.65000	-63982
6.65833	-62331
6.66667	-60119
6.67500	-57482
6.68333	-54334
6.69167	-50979
6.70000	-47683
6.70833	-44595
6.71667	-42271
6.72500	-40850
6.73333	-40495
6.74167	-41357
6.75000	-43433
6.75833	-46399
6.76667	-49780
6.77500	-53111
6.78333	-56416
6.79167	-59477
6.80000	-62097
6.80833	-64327
6.81667	-66072
6.82500	-67414
6.83333	-68405
6.84167	-69110
6.85000	-69612
6.85833	-69963
6.86667	-70226
6.87500	-70440
6.88333	-70611
6.89167	-70748
6.90000	-70867
6.90833	-70982
6.91667	-71095
6.92500	-71213
6.93333	-71336
6.94167	-71466
6.95000	-71601
6.95833	-71731
6.96667	-71860
6.97500	-71982
6.98333	-72100
6.99167	-72212
7.00000	-72314
7.00833	-72408
7.01667	-72483
7.02500	-72541
7.03333	-72582
7.04167	-72609
7.05000	-72624
7.05833	-72631
7.06667	-72634
7.07500	-72640
7.08333	-72659
7.09167	-72695
7.10000	-72755
7.10833	-72843
7.11667	-72953
7.12500	-73089
7.13333	-73235
7.14167	-73383
7.15000	-73528
7.15833	-73658
7.16667	-73774
7.17500	-73870
7.18333	-73949
7.19167	-74009
7.20000	-74049
7.20833	-74074
7.21667	-74092
7.22500	-74110
7.23333	-74130
7.24167	-74156
7.25000	-74186
7.25833	-74219
7.26667	-74257
7.27500	-74296
7.28333	-74334
7.29167	-74371
7.30000	-74407
7.30833	-74442
7.31667	-74476
7.32500	-74511
7.33333	-74545
7.34167	-74578
7.35000	-74610
7.35833	-74640
7.36667	-74669
7.37500	-74694
7.38333	-74715
7.39167	-74729
7.40000	-74738
7.40833	-74739
7.41667	-74733
7.42500	-74719
7.43333	-74705
7.44167	-74695
7.45000	-74689
7.45833	-74685
7.46667	-74684
7.47500	-74684
7.48333	-74688
7.49167	-74696
7.50000	-74705
7.50833	-74715
7.51667	-74722
7.52500	-74728
7.53333	-74735
7.54167	-74749
7.55000	-74770
7.55833	-74793
7.56667	-74816
7.57500	-74836
7.58333	-74853
7.59167	-74868
7.60000	-74880
7.60833	-74888
7.61667	-74887
7.62500	-74873
7.63333	-74850
7.64167	-74818
7.65000	-74780
7.65833	-74743
7.66667	-74706
7.67500	-74668
7.68333	-74628
7.69167	-74588
7.70000	-74551
7.70833	-74519
7.71667	-74500
7.72500	-74498
7.73333	-74509
7.74167	-74531
7.75000	-74561
7.75833	-74592
7.76667	-74625
7.77500	-74652
7.78333	-74671
7.79167	-74678
7.80000	-74664
7.80833	-74630
7.81667	-74578
7.82500	-74509
7.83333	-74429
7.84167	-74338
7.85000	-74239
7.85833	-74141
7.86667	-74046
7.87500	-73973
7.88333	-73935
7.89167	-73932
7.90000	-73969
7.90833	-74042
7.91667	-74136
7.92500	-74248
7.93333	-74365
7.94167	-74481
7.95000	-74592
7.95833	-74687
7.96667	-74769
7.97500	-74839
7.98333	-74904
7.99167	-74965
8.00000	-75023

[Header]
Application Name	LabSolutions
Version	5.98SP1
Data File Name	C:\LabSolutions\Data\spiroindane_pyrrolidines\level2_03302021_1.lcd
Output Date	4/9/2021
Output Time	4:33:29 PM

[Configuration]
Instrument Name	MDCM-420DJB2-Instrument1
Instrument #	1
Line #	1
# of Detectors	1
Detector ID	Detector A
Detector Name	Detector A
# of Channels	2

[LC Chromatogram(Detector A-Ch1)]
Interval(msec)	500
# of Points	961
Start Time(min)	0.000
End Time(min)	8.000
Intensity Units	mAU
Intensity Multiplier	0.001
Wavelength(nm)	254nm
R.Time (min)	Intensity
0.00000	-23
0.00833	-23
0.01667	1
0.02500	1
0.03333	1
0.04167	0
0.05000	0
0.05833	1
0.06667	2
0.07500	3
0.08333	3
0.09167	3
0.10000	2
0.10833	1
0.11667	1
0.12500	1
0.13333	3
0.14167	5
0.15000	6
0.15833	7
0.16667	7
0.17500	6
0.18333	4
0.19167	3
0.20000	3
0.20833	4
0.21667	5
0.22500	6
0.23333	6
0.24167	6
0.25000	5
0.25833	5
0.26667	6
0.27500	7
0.28333	9
0.29167	11
0.30000	12
0.30833	11
0.31667	10
0.32500	10
0.33333	10
0.34167	10
0.35000	12
0.35833	15
0.36667	19
0.37500	24
0.38333	30
0.39167	37
0.40000	43
0.40833	47
0.41667	51
0.42500	53
0.43333	55
0.44167	57
0.45000	59
0.45833	60
0.46667	60
0.47500	57
0.48333	54
0.49167	50
0.50000	47
0.50833	46
0.51667	47
0.52500	49
0.53333	58
0.54167	79
0.55000	119
0.55833	186
0.56667	282
0.57500	401
0.58333	542
0.59167	667
0.60000	749
0.60833	780
0.61667	756
0.62500	687
0.63333	603
0.64167	516
0.65000	435
0.65833	361
0.66667	288
0.67500	222
0.68333	169
0.69167	130
0.70000	100
0.70833	78
0.71667	62
0.72500	51
0.73333	43
0.74167	37
0.75000	34
0.75833	31
0.76667	29
0.77500	28
0.78333	27
0.79167	28
0.80000	29
0.80833	29
0.81667	29
0.82500	29
0.83333	27
0.84167	26
0.85000	24
0.85833	22
0.86667	21
0.87500	22
0.88333	23
0.89167	24
0.90000	25
0.90833	25
0.91667	24
0.92500	23
0.93333	23
0.94167	23
0.95000	24
0.95833	26
0.96667	27
0.97500	28
0.98333	27
0.99167	25
1.00000	23
1.00833	20
1.01667	19
1.02500	20
1.03333	23
1.04167	27
1.05000	31
1.05833	34
1.06667	35
1.07500	35
1.08333	34
1.09167	32
1.10000	29
1.10833	27
1.11667	25
1.12500	25
1.13333	26
1.14167	28
1.15000	29
1.15833	29
1.16667	28
1.17500	27
1.18333	26
1.19167	26
1.20000	25
1.20833	25
1.21667	24
1.22500	23
1.23333	21
1.24167	19
1.25000	16
1.25833	14
1.26667	11
1.27500	8
1.28333	5
1.29167	3
1.30000	1
1.30833	1
1.31667	1
1.32500	3
1.33333	6
1.34167	9
1.35000	13
1.35833	17
1.36667	23
1.37500	28
1.38333	34
1.39167	40
1.40000	45
1.40833	51
1.41667	56
1.42500	61
1.43333	66
1.44167	72
1.45000	77
1.45833	84
1.46667	91
1.47500	98
1.48333	104
1.49167	108
1.50000	113
1.50833	118
1.51667	125
1.52500	132
1.53333	139
1.54167	147
1.55000	156
1.55833	166
1.56667	177
1.57500	189
1.58333	202
1.59167	216
1.60000	232
1.60833	248
1.61667	264
1.62500	280
1.63333	296
1.64167	312
1.65000	327
1.65833	341
1.66667	356
1.67500	371
1.68333	387
1.69167	404
1.70000	424
1.70833	447
1.71667	472
1.72500	498
1.73333	525
1.74167	553
1.75000	581
1.75833	609
1.76667	639
1.77500	669
1.78333	700
1.79167	731
1.80000	764
1.80833	797
1.81667	828
1.82500	859
1.83333	887
1.84167	910
1.85000	928
1.85833	941
1.86667	948
1.87500	950
1.88333	948
1.89167	947
1.90000	953
1.90833	968
1.91667	994
1.92500	1032
1.93333	1075
1.94167	1124
1.95000	1175
1.95833	1227
1.96667	1280
1.97500	1329
1.98333	1376
1.99167	1416
2.00000	1449
2.00833	1472
2.01667	1482
2.02500	1479
2.03333	1466
2.04167	1447
2.05000	1428
2.05833	1416
2.06667	1411
2.07500	1414
2.08333	1423
2.09167	1435
2.10000	1450
2.10833	1464
2.11667	1477
2.12500	1486
2.13333	1492
2.14167	1494
2.15000	1493
2.15833	1489
2.16667	1482
2.17500	1475
2.18333	1466
2.19167	1459
2.20000	1454
2.20833	1454
2.21667	1462
2.22500	1478
2.23333	1508
2.24167	1558
2.25000	1636
2.25833	1757
2.26667	1933
2.27500	2174
2.28333	2504
2.29167	2923
2.30000	3462
2.30833	4112
2.31667	4857
2.32500	5664
2.33333	6272
2.34167	6546
2.35000	6446
2.35833	5910
2.36667	5049
2.37500	4165
2.38333	3357
2.39167	2724
2.40000	2301
2.40833	2046
2.41667	1909
2.42500	1847
2.43333	1827
2.44167	1828
2.45000	1838
2.45833	1852
2.46667	1873
2.47500	1916
2.48333	1994
2.49167	2124
2.50000	2333
2.50833	2628
2.51667	3025
2.52500	3537
2.53333	4126
2.54167	4796
2.55000	5423
2.55833	5873
2.56667	6086
2.57500	5938
2.58333	5396
2.59167	4652
2.60000	3820
2.60833	3020
2.61667	2405
2.62500	1979
2.63333	1708
2.64167	1547
2.65000	1456
2.65833	1406
2.66667	1381
2.67500	1369
2.68333	1364
2.69167	1363
2.70000	1364
2.70833	1368
2.71667	1374
2.72500	1381
2.73333	1387
2.74167	1391
2.75000	1392
2.75833	1391
2.76667	1389
2.77500	1389
2.78333	1394
2.79167	1404
2.80000	1421
2.80833	1445
2.81667	1474
2.82500	1506
2.83333	1533
2.84167	1552
2.85000	1561
2.85833	1555
2.86667	1535
2.87500	1506
2.88333	1470
2.89167	1433
2.90000	1399
2.90833	1371
2.91667	1352
2.92500	1342
2.93333	1340
2.94167	1344
2.95000	1354
2.95833	1367
2.96667	1381
2.97500	1392
2.98333	1402
2.99167	1408
3.00000	1410
3.00833	1409
3.01667	1405
3.02500	1400
3.03333	1394
3.04167	1389
3.05000	1384
3.05833	1380
3.06667	1376
3.07500	1374
3.08333	1375
3.09167	1378
3.10000	1383
3.10833	1388
3.11667	1391
3.12500	1392
3.13333	1390
3.14167	1386
3.15000	1381
3.15833	1375
3.16667	1370
3.17500	1364
3.18333	1359
3.19167	1355
3.20000	1352
3.20833	1349
3.21667	1348
3.22500	1347
3.23333	1345
3.24167	1342
3.25000	1339
3.25833	1335
3.26667	1330
3.27500	1325
3.28333	1321
3.29167	1316
3.30000	1311
3.30833	1306
3.31667	1303
3.32500	1302
3.33333	1302
3.34167	1304
3.35000	1307
3.35833	1310
3.36667	1314
3.37500	1317
3.38333	1321
3.39167	1326
3.40000	1331
3.40833	1335
3.41667	1339
3.42500	1342
3.43333	1345
3.44167	1348
3.45000	1351
3.45833	1354
3.46667	1358
3.47500	1363
3.48333	1369
3.49167	1378
3.50000	1393
3.50833	1418
3.51667	1461
3.52500	1532
3.53333	1650
3.54167	1850
3.55000	2227
3.55833	2848
3.56667	3792
3.57500	5288
3.58333	7613
3.59167	11052
3.60000	16136
3.60833	23053
3.61667	32104
3.62500	43640
3.63333	56606
3.64167	71127
3.65000	85523
3.65833	98112
3.66667	108228
3.67500	113791
3.68333	114226
3.69167	110000
3.70000	101060
3.70833	88768
3.71667	75104
3.72500	60572
3.73333	47225
3.74167	35477
3.75000	25721
3.75833	18248
3.76667	12628
3.77500	8685
3.78333	5998
3.79167	4232
3.80000	3117
3.80833	2426
3.81667	2011
3.82500	1766
3.83333	1623
3.84167	1542
3.85000	1496
3.85833	1470
3.86667	1455
3.87500	1447
3.88333	1441
3.89167	1437
3.90000	1433
3.90833	1429
3.91667	1423
3.92500	1416
3.93333	1408
3.94167	1400
3.95000	1392
3.95833	1382
3.96667	1372
3.97500	1361
3.98333	1351
3.99167	1341
4.00000	1332
4.00833	1325
4.01667	1318
4.02500	1313
4.03333	1309
4.04167	1309
4.05000	1311
4.05833	1314
4.06667	1317
4.07500	1319
4.08333	1320
4.09167	1320
4.10000	1321
4.10833	1323
4.11667	1324
4.12500	1323
4.13333	1321
4.14167	1317
4.15000	1313
4.15833	1309
4.16667	1304
4.17500	1299
4.18333	1292
4.19167	1285
4.20000	1279
4.20833	1274
4.21667	1270
4.22500	1266
4.23333	1264
4.24167	1261
4.25000	1259
4.25833	1258
4.26667	1257
4.27500	1258
4.28333	1259
4.29167	1260
4.30000	1260
4.30833	1258
4.31667	1255
4.32500	1252
4.33333	1249
4.34167	1249
4.35000	1250
4.35833	1252
4.36667	1255
4.37500	1257
4.38333	1257
4.39167	1257
4.40000	1254
4.40833	1251
4.41667	1248
4.42500	1246
4.43333	1246
4.44167	1248
4.45000	1252
4.45833	1256
4.46667	1260
4.47500	1263
4.48333	1264
4.49167	1263
4.50000	1261
4.50833	1258
4.51667	1256
4.52500	1255
4.53333	1255
4.54167	1255
4.55000	1255
4.55833	1254
4.56667	1251
4.57500	1248
4.58333	1245
4.59167	1242
4.60000	1240
4.60833	1237
4.61667	1235
4.62500	1233
4.63333	1233
4.64167	1232
4.65000	1232
4.65833	1232
4.66667	1232
4.67500	1233
4.68333	1235
4.69167	1237
4.70000	1238
4.70833	1239
4.71667	1238
4.72500	1236
4.73333	1234
4.74167	1232
4.75000	1230
4.75833	1230
4.76667	1232
4.77500	1234
4.78333	1236
4.79167	1238
4.80000	1238
4.80833	1237
4.81667	1234
4.82500	1231
4.83333	1229
4.84167	1227
4.85000	1226
4.85833	1227
4.86667	1228
4.87500	1229
4.88333	1229
4.89167	1228
4.90000	1227
4.90833	1225
4.91667	1224
4.92500	1223
4.93333	1223
4.94167	1222
4.95000	1220
4.95833	1218
4.96667	1218
4.97500	1219
4.98333	1221
4.99167	1223
5.00000	1225
5.00833	1228
5.01667	1230
5.02500	1233
5.03333	1235
5.04167	1237
5.05000	1237
5.05833	1235
5.06667	1234
5.07500	1233
5.08333	1234
5.09167	1235
5.10000	1236
5.10833	1237
5.11667	1237
5.12500	1237
5.13333	1236
5.14167	1235
5.15000	1233
5.15833	1232
5.16667	1231
5.17500	1232
5.18333	1235
5.19167	1239
5.20000	1241
5.20833	1244
5.21667	1247
5.22500	1251
5.23333	1258
5.24167	1268
5.25000	1281
5.25833	1299
5.26667	1325
5.27500	1361
5.28333	1414
5.29167	1485
5.30000	1582
5.30833	1712
5.31667	1883
5.32500	2110
5.33333	2397
5.34167	2768
5.35000	3223
5.35833	3782
5.36667	4457
5.37500	5232
5.38333	6142
5.39167	7134
5.40000	8219
5.40833	9371
5.41667	10519
5.42500	11679
5.43333	12739
5.44167	13688
5.45000	14470
5.45833	15019
5.46667	15337
5.47500	15384
5.48333	15151
5.49167	14680
5.50000	13966
5.50833	13058
5.51667	12029
5.52500	10875
5.53333	9714
5.54167	8543
5.55000	7423
5.55833	6401
5.56667	5463
5.57500	4663
5.58333	3974
5.59167	3409
5.60000	2960
5.60833	2604
5.61667	2339
5.62500	2142
5.63333	2002
5.64167	1906
5.65000	1841
5.65833	1798
5.66667	1767
5.67500	1745
5.68333	1726
5.69167	1709
5.70000	1690
5.70833	1669
5.71667	1646
5.72500	1622
5.73333	1597
5.74167	1573
5.75000	1548
5.75833	1525
5.76667	1502
5.77500	1482
5.78333	1463
5.79167	1446
5.80000	1433
5.80833	1423
5.81667	1415
5.82500	1410
5.83333	1406
5.84167	1404
5.85000	1403
5.85833	1404
5.86667	1406
5.87500	1409
5.88333	1413
5.89167	1415
5.90000	1418
5.90833	1420
5.91667	1421
5.92500	1422
5.93333	1424
5.94167	1426
5.95000	1431
5.95833	1436
5.96667	1443
5.97500	1450
5.98333	1457
5.99167	1465
6.00000	1475
6.00833	1487
6.01667	1502
6.02500	1521
6.03333	1544
6.04167	1573
6.05000	1610
6.05833	1658
6.06667	1720
6.07500	1796
6.08333	1891
6.09167	2000
6.10000	2126
6.10833	2264
6.11667	2407
6.12500	2557
6.13333	2698
6.14167	2826
6.15000	2932
6.15833	3004
6.16667	3040
6.17500	3034
6.18333	2984
6.19167	2901
6.20000	2786
6.20833	2650
6.21667	2509
6.22500	2365
6.23333	2231
6.24167	2110
6.25000	2005
6.25833	1919
6.26667	1849
6.27500	1795
6.28333	1754
6.29167	1723
6.30000	1700
6.30833	1683
6.31667	1671
6.32500	1662
6.33333	1656
6.34167	1651
6.35000	1648
6.35833	1646
6.36667	1645
6.37500	1645
6.38333	1644
6.39167	1644
6.40000	1645
6.40833	1647
6.41667	1650
6.42500	1651
6.43333	1651
6.44167	1651
6.45000	1650
6.45833	1651
6.46667	1654
6.47500	1657
6.48333	1661
6.49167	1664
6.50000	1666
6.50833	1668
6.51667	1670
6.52500	1674
6.53333	1677
6.54167	1680
6.55000	1684
6.55833	1687
6.56667	1692
6.57500	1700
6.58333	1713
6.59167	1737
6.60000	1777
6.60833	1846
6.61667	1965
6.62500	2158
6.63333	2466
6.64167	2948
6.65000	3645
6.65833	4646
6.66667	6002
6.67500	7701
6.68333	9837
6.69167	12211
6.70000	14769
6.70833	17346
6.71667	19575
6.72500	21388
6.73333	22495
6.74167	22748
6.75000	22216
6.75833	20911
6.76667	18945
6.77500	16671
6.78333	14150
6.79167	11697
6.80000	9461
6.80833	7489
6.81667	5907
6.82500	4655
6.83333	3727
6.84167	3066
6.85000	2609
6.85833	2310
6.86667	2118
6.87500	2002
6.88333	1936
6.89167	1901
6.90000	1887
6.90833	1884
6.91667	1886
6.92500	1891
6.93333	1897
6.94167	1904
6.95000	1910
6.95833	1916
6.96667	1922
6.97500	1928
6.98333	1934
6.99167	1940
7.00000	1949
7.00833	1961
7.01667	1980
7.02500	2008
7.03333	2047
7.04167	2101
7.05000	2172
7.05833	2258
7.06667	2361
7.07500	2467
7.08333	2575
7.09167	2669
7.10000	2735
7.10833	2772
7.11667	2771
7.12500	2732
7.13333	2666
7.14167	2576
7.15000	2476
7.15833	2379
7.16667	2288
7.17500	2212
7.18333	2151
7.19167	2107
7.20000	2078
7.20833	2061
7.21667	2054
7.22500	2054
7.23333	2058
7.24167	2064
7.25000	2070
7.25833	2074
7.26667	2076
7.27500	2074
7.28333	2068
7.29167	2059
7.30000	2049
7.30833	2037
7.31667	2025
7.32500	2014
7.33333	2005
7.34167	1999
7.35000	1997
7.35833	1997
7.36667	1999
7.37500	2004
7.38333	2010
7.39167	2018
7.40000	2029
7.40833	2042
7.41667	2058
7.42500	2075
7.43333	2094
7.44167	2115
7.45000	2137
7.45833	2160
7.46667	2186
7.47500	2213
7.48333	2242
7.49167	2271
7.50000	2302
7.50833	2334
7.51667	2365
7.52500	2396
7.53333	2423
7.54167	2444
7.55000	2460
7.55833	2468
7.56667	2467
7.57500	2458
7.58333	2441
7.59167	2418
7.60000	2391
7.60833	2362
7.61667	2334
7.62500	2307
7.63333	2286
7.64167	2272
7.65000	2267
7.65833	2272
7.66667	2287
7.67500	2310
7.68333	2340
7.69167	2371
7.70000	2399
7.70833	2418
7.71667	2425
7.72500	2418
7.73333	2397
7.74167	2360
7.75000	2312
7.75833	2258
7.76667	2200
7.77500	2147
7.78333	2098
7.79167	2058
7.80000	2028
7.80833	2008
7.81667	1998
7.82500	1998
7.83333	2006
7.84167	2020
7.85000	2039
7.85833	2060
7.86667	2082
7.87500	2102
7.88333	2121
7.89167	2136
7.90000	2146
7.90833	2152
7.91667	2154
7.92500	2152
7.93333	2149
7.94167	2146
7.95000	2141
7.95833	2138
7.96667	2133
7.97500	2127
7.98333	2119
7.99167	2108
8.00000	2095

[LC Chromatogram(Detector A-Ch2)]
Interval(msec)	500
# of Points	961
Start Time(min)	0.000
End Time(min)	8.000
Intensity Units	mAU
Intensity Multiplier	0.001
Wavelength(nm)	220nm
R.Time (min)	Intensity
0.00000	-285
0.00833	-285
0.01667	6
0.02500	16
0.03333	21
0.04167	22
0.05000	19
0.05833	13
0.06667	5
0.07500	-3
0.08333	-9
0.09167	-11
0.10000	-10
0.10833	-12
0.11667	-19
0.12500	-24
0.13333	-26
0.14167	-23
0.15000	-17
0.15833	-11
0.16667	-6
0.17500	-4
0.18333	-1
0.19167	6
0.20000	19
0.20833	35
0.21667	54
0.22500	71
0.23333	87
0.24167	99
0.25000	105
0.25833	106
0.26667	108
0.27500	116
0.28333	127
0.29167	142
0.30000	156
0.30833	163
0.31667	161
0.32500	154
0.33333	144
0.34167	136
0.35000	133
0.35833	137
0.36667	146
0.37500	156
0.38333	150
0.39167	112
0.40000	56
0.40833	6
0.41667	-17
0.42500	29
0.43333	171
0.44167	352
0.45000	517
0.45833	639
0.46667	686
0.47500	654
0.48333	592
0.49167	536
0.50000	497
0.50833	481
0.51667	487
0.52500	505
0.53333	538
0.54167	638
0.55000	878
0.55833	1274
0.56667	1822
0.57500	2450
0.58333	2555
0.59167	1597
0.60000	-418
0.60833	-2940
0.61667	-5318
0.62500	-6807
0.63333	-7155
0.64167	-6698
0.65000	-5783
0.65833	-4569
0.66667	-3333
0.67500	-2304
0.68333	-1545
0.69167	-1001
0.70000	-617
0.70833	-361
0.71667	-193
0.72500	-82
0.73333	-10
0.74167	35
0.75000	61
0.75833	75
0.76667	81
0.77500	80
0.78333	77
0.79167	75
0.80000	76
0.80833	83
0.81667	91
0.82500	95
0.83333	92
0.84167	85
0.85000	81
0.85833	82
0.86667	90
0.87500	104
0.88333	117
0.89167	124
0.90000	125
0.90833	129
0.91667	136
0.92500	145
0.93333	153
0.94167	157
0.95000	158
0.95833	155
0.96667	154
0.97500	156
0.98333	163
0.99167	173
1.00000	186
1.00833	204
1.01667	225
1.02500	246
1.03333	264
1.04167	275
1.05000	277
1.05833	270
1.06667	256
1.07500	236
1.08333	220
1.09167	217
1.10000	223
1.10833	231
1.11667	237
1.12500	235
1.13333	220
1.14167	203
1.15000	193
1.15833	194
1.16667	203
1.17500	218
1.18333	234
1.19167	249
1.20000	261
1.20833	268
1.21667	269
1.22500	263
1.23333	249
1.24167	230
1.25000	208
1.25833	184
1.26667	156
1.27500	123
1.28333	90
1.29167	60
1.30000	32
1.30833	2
1.31667	-34
1.32500	-84
1.33333	-155
1.34167	-243
1.35000	-344
1.35833	-458
1.36667	-579
1.37500	-711
1.38333	-847
1.39167	-990
1.40000	-1143
1.40833	-1307
1.41667	-1488
1.42500	-1678
1.43333	-1883
1.44167	-2093
1.45000	-2304
1.45833	-2518
1.46667	-2726
1.47500	-2938
1.48333	-3150
1.49167	-3370
1.50000	-3601
1.50833	-3839
1.51667	-4092
1.52500	-4344
1.53333	-4602
1.54167	-4859
1.55000	-5119
1.55833	-5388
1.56667	-5659
1.57500	-5947
1.58333	-6238
1.59167	-6540
1.60000	-6852
1.60833	-7170
1.61667	-7505
1.62500	-7838
1.63333	-8180
1.64167	-8519
1.65000	-8851
1.65833	-9186
1.66667	-9511
1.67500	-9842
1.68333	-10162
1.69167	-10474
1.70000	-10781
1.70833	-11081
1.71667	-11390
1.72500	-11697
1.73333	-12016
1.74167	-12338
1.75000	-12665
1.75833	-13003
1.76667	-13338
1.77500	-13685
1.78333	-14030
1.79167	-14382
1.80000	-14741
1.80833	-15105
1.81667	-15488
1.82500	-15875
1.83333	-16282
1.84167	-16700
1.85000	-17135
1.85833	-17596
1.86667	-18064
1.87500	-18560
1.88333	-19061
1.89167	-19582
1.90000	-20114
1.90833	-20642
1.91667	-21181
1.92500	-21698
1.93333	-22208
1.94167	-22703
1.95000	-23186
1.95833	-23671
1.96667	-24147
1.97500	-24640
1.98333	-25135
1.99167	-25649
2.00000	-26180
2.00833	-26717
2.01667	-27279
2.02500	-27841
2.03333	-28425
2.04167	-29012
2.05000	-29600
2.05833	-30196
2.06667	-30765
2.07500	-31329
2.08333	-31858
2.09167	-32357
2.10000	-32832
2.10833	-33280
2.11667	-33727
2.12500	-34174
2.13333	-34652
2.14167	-35146
2.15000	-35649
2.15833	-36166
2.16667	-36661
2.17500	-37150
2.18333	-37609
2.19167	-38045
2.20000	-38457
2.20833	-38829
2.21667	-39168
2.22500	-39434
2.23333	-39610
2.24167	-39636
2.25000	-39424
2.25833	-38911
2.26667	-37983
2.27500	-36508
2.28333	-34404
2.29167	-31426
2.30000	-27469
2.30833	-22303
2.31667	-15900
2.32500	-9451
2.33333	-3413
2.34167	503
2.35000	317
2.35833	-3795
2.36667	-10504
2.37500	-19190
2.38333	-27447
2.39167	-33842
2.40000	-38348
2.40833	-41229
2.41667	-42948
2.42500	-43907
2.43333	-44396
2.44167	-44597
2.45000	-44607
2.45833	-44461
2.46667	-44126
2.47500	-43546
2.48333	-42613
2.49167	-41154
2.50000	-39076
2.50833	-36205
2.51667	-32385
2.52500	-27782
2.53333	-22203
2.54167	-16235
2.55000	-10334
2.55833	-5202
2.56667	-2850
2.57500	-3989
2.58333	-8107
2.59167	-15050
2.60000	-23314
2.60833	-30697
2.61667	-36715
2.62500	-41048
2.63333	-43872
2.64167	-45607
2.65000	-46630
2.65833	-47225
2.66667	-47569
2.67500	-47775
2.68333	-47904
2.69167	-47992
2.70000	-48055
2.70833	-48097
2.71667	-48122
2.72500	-48131
2.73333	-48122
2.74167	-48100
2.75000	-48068
2.75833	-48032
2.76667	-48002
2.77500	-47986
2.78333	-47991
2.79167	-48024
2.80000	-48079
2.80833	-48143
2.81667	-48211
2.82500	-48269
2.83333	-48313
2.84167	-48349
2.85000	-48388
2.85833	-48436
2.86667	-48492
2.87500	-48560
2.88333	-48629
2.89167	-48696
2.90000	-48756
2.90833	-48798
2.91667	-48822
2.92500	-48826
2.93333	-48812
2.94167	-48787
2.95000	-48762
2.95833	-48741
2.96667	-48725
2.97500	-48716
2.98333	-48712
2.99167	-48711
3.00000	-48716
3.00833	-48732
3.01667	-48760
3.02500	-48795
3.03333	-48832
3.04167	-48868
3.05000	-48900
3.05833	-48930
3.06667	-48963
3.07500	-49001
3.08333	-49040
3.09167	-49077
3.10000	-49111
3.10833	-49138
3.11667	-49159
3.12500	-49171
3.13333	-49174
3.14167	-49172
3.15000	-49167
3.15833	-49159
3.16667	-49150
3.17500	-49139
3.18333	-49121
3.19167	-49091
3.20000	-49047
3.20833	-48987
3.21667	-48908
3.22500	-48825
3.23333	-48739
3.24167	-48661
3.25000	-48597
3.25833	-48553
3.26667	-48535
3.27500	-48548
3.28333	-48595
3.29167	-48673
3.30000	-48767
3.30833	-48869
3.31667	-48976
3.32500	-49073
3.33333	-49156
3.34167	-49222
3.35000	-49265
3.35833	-49291
3.36667	-49300
3.37500	-49296
3.38333	-49283
3.39167	-49265
3.40000	-49244
3.40833	-49225
3.41667	-49209
3.42500	-49199
3.43333	-49196
3.44167	-49200
3.45000	-49211
3.45833	-49228
3.46667	-49245
3.47500	-49261
3.48333	-49276
3.49167	-49293
3.50000	-49310
3.50833	-49321
3.51667	-49323
3.52500	-49303
3.53333	-49247
3.54167	-49141
3.55000	-48975
3.55833	-48733
3.56667	-48356
3.57500	-47770
3.58333	-46882
3.59167	-45533
3.60000	-43622
3.60833	-40976
3.61667	-37426
3.62500	-33131
3.63333	-27910
3.64167	-22258
3.65000	-16605
3.65833	-11225
3.66667	-7126
3.67500	-4573
3.68333	-3878
3.69167	-5367
3.70000	-8661
3.70833	-13235
3.71667	-18869
3.72500	-24567
3.73333	-30068
3.74167	-34983
3.75000	-38996
3.75833	-42213
3.76667	-44588
3.77500	-46293
3.78333	-47467
3.79167	-48238
3.80000	-48736
3.80833	-49043
3.81667	-49231
3.82500	-49341
3.83333	-49406
3.84167	-49443
3.85000	-49466
3.85833	-49480
3.86667	-49488
3.87500	-49493
3.88333	-49493
3.89167	-49488
3.90000	-49476
3.90833	-49461
3.91667	-49441
3.92500	-49419
3.93333	-49394
3.94167	-49368
3.95000	-49345
3.95833	-49326
3.96667	-49314
3.97500	-49310
3.98333	-49312
3.99167	-49320
4.00000	-49330
4.00833	-49343
4.01667	-49357
4.02500	-49373
4.03333	-49391
4.04167	-49410
4.05000	-49431
4.05833	-49453
4.06667	-49475
4.07500	-49497
4.08333	-49516
4.09167	-49530
4.10000	-49541
4.10833	-49550
4.11667	-49557
4.12500	-49565
4.13333	-49575
4.14167	-49586
4.15000	-49595
4.15833	-49603
4.16667	-49610
4.17500	-49616
4.18333	-49623
4.19167	-49634
4.20000	-49647
4.20833	-49656
4.21667	-49660
4.22500	-49660
4.23333	-49655
4.24167	-49648
4.25000	-49641
4.25833	-49633
4.26667	-49625
4.27500	-49619
4.28333	-49614
4.29167	-49612
4.30000	-49614
4.30833	-49618
4.31667	-49625
4.32500	-49633
4.33333	-49641
4.34167	-49649
4.35000	-49655
4.35833	-49657
4.36667	-49651
4.37500	-49631
4.38333	-49603
4.39167	-49570
4.40000	-49538
4.40833	-49517
4.41667	-49509
4.42500	-49511
4.43333	-49521
4.44167	-49533
4.45000	-49544
4.45833	-49551
4.46667	-49556
4.47500	-49557
4.48333	-49558
4.49167	-49562
4.50000	-49569
4.50833	-49579
4.51667	-49592
4.52500	-49607
4.53333	-49624
4.54167	-49640
4.55000	-49653
4.55833	-49662
4.56667	-49669
4.57500	-49672
4.58333	-49675
4.59167	-49680
4.60000	-49686
4.60833	-49692
4.61667	-49698
4.62500	-49704
4.63333	-49710
4.64167	-49716
4.65000	-49720
4.65833	-49721
4.66667	-49721
4.67500	-49719
4.68333	-49720
4.69167	-49726
4.70000	-49735
4.70833	-49742
4.71667	-49744
4.72500	-49741
4.73333	-49733
4.74167	-49723
4.75000	-49712
4.75833	-49701
4.76667	-49691
4.77500	-49683
4.78333	-49680
4.79167	-49685
4.80000	-49696
4.80833	-49711
4.81667	-49727
4.82500	-49740
4.83333	-49750
4.84167	-49757
4.85000	-49764
4.85833	-49770
4.86667	-49776
4.87500	-49780
4.88333	-49782
4.89167	-49779
4.90000	-49771
4.90833	-49762
4.91667	-49754
4.92500	-49750
4.93333	-49753
4.94167	-49761
4.95000	-49771
4.95833	-49783
4.96667	-49794
4.97500	-49805
4.98333	-49814
4.99167	-49819
5.00000	-49822
5.00833	-49824
5.01667	-49827
5.02500	-49835
5.03333	-49852
5.04167	-49877
5.05000	-49905
5.05833	-49934
5.06667	-49960
5.07500	-49984
5.08333	-50003
5.09167	-50019
5.10000	-50032
5.10833	-50043
5.11667	-50055
5.12500	-50071
5.13333	-50097
5.14167	-50132
5.15000	-50173
5.15833	-50219
5.16667	-50258
5.17500	-50288
5.18333	-50311
5.19167	-50331
5.20000	-50351
5.20833	-50373
5.21667	-50398
5.22500	-50419
5.23333	-50433
5.24167	-50430
5.25000	-50403
5.25833	-50343
5.26667	-50236
5.27500	-50065
5.28333	-49815
5.29167	-49451
5.30000	-48946
5.30833	-48251
5.31667	-47301
5.32500	-46058
5.33333	-44395
5.34167	-42291
5.35000	-39623
5.35833	-36301
5.36667	-32378
5.37500	-27631
5.38333	-22295
5.39167	-16238
5.40000	-9597
5.40833	-2701
5.41667	4570
5.42500	11545
5.43333	18232
5.44167	24218
5.45000	29086
5.45833	32817
5.46667	34968
5.47500	35478
5.48333	34404
5.49167	31620
5.50000	27385
5.50833	21998
5.51667	15461
5.52500	8486
5.53333	1055
5.54167	-6362
5.55000	-13426
5.55833	-20172
5.56667	-26139
5.57500	-31499
5.58333	-36066
5.59167	-39869
5.60000	-43023
5.60833	-45501
5.61667	-47480
5.62500	-48995
5.63333	-50158
5.64167	-51043
5.65000	-51700
5.65833	-52198
5.66667	-52571
5.67500	-52862
5.68333	-53095
5.69167	-53292
5.70000	-53466
5.70833	-53622
5.71667	-53772
5.72500	-53916
5.73333	-54062
5.74167	-54209
5.75000	-54356
5.75833	-54506
5.76667	-54648
5.77500	-54788
5.78333	-54917
5.79167	-55037
5.80000	-55162
5.80833	-55289
5.81667	-55415
5.82500	-55541
5.83333	-55667
5.84167	-55785
5.85000	-55895
5.85833	-56002
5.86667	-56102
5.87500	-56206
5.88333	-56319
5.89167	-56431
5.90000	-56534
5.90833	-56632
5.91667	-56733
5.92500	-56835
5.93333	-56944
5.94167	-57066
5.95000	-57187
5.95833	-57294
5.96667	-57391
5.97500	-57488
5.98333	-57585
5.99167	-57684
6.00000	-57786
6.00833	-57884
6.01667	-57982
6.02500	-58077
6.03333	-58177
6.04167	-58279
6.05000	-58380
6.05833	-58484
6.06667	-58584
6.07500	-58683
6.08333	-58780
6.09167	-58875
6.10000	-58968
6.10833	-59055
6.11667	-59139
6.12500	-59220
6.13333	-59302
6.14167	-59387
6.15000	-59476
6.15833	-59573
6.16667	-59678
6.17500	-59797
6.18333	-59926
6.19167	-60065
6.20000	-60213
6.20833	-60364
6.21667	-60523
6.22500	-60678
6.23333	-60833
6.24167	-60984
6.25000	-61126
6.25833	-61265
6.26667	-61399
6.27500	-61537
6.28333	-61673
6.29167	-61807
6.30000	-61943
6.30833	-62079
6.31667	-62222
6.32500	-62366
6.33333	-62514
6.34167	-62660
6.35000	-62798
6.35833	-62933
6.36667	-63063
6.37500	-63195
6.38333	-63324
6.39167	-63450
6.40000	-63576
6.40833	-63697
6.41667	-63818
6.42500	-63938
6.43333	-64061
6.44167	-64186
6.45000	-64313
6.45833	-64443
6.46667	-64569
6.47500	-64695
6.48333	-64816
6.49167	-64932
6.50000	-65046
6.50833	-65152
6.51667	-65257
6.52500	-65363
6.53333	-65477
6.54167	-65599
6.55000	-65729
6.55833	-65868
6.56667	-65998
6.57500	-66116
6.58333	-66209
6.59167	-66268
6.60000	-66280
6.60833	-66216
6.61667	-66042
6.62500	-65670
6.63333	-64991
6.64167	-63885
6.65000	-62131
6.65833	-59574
6.66667	-56099
6.67500	-51420
6.68333	-45826
6.69167	-39246
6.70000	-32031
6.70833	-25003
6.71667	-18295
6.72500	-13013
6.73333	-9631
6.74167	-8355
6.75000	-9586
6.75833	-13131
6.76667	-18299
6.77500	-24973
6.78333	-32124
6.79167	-39243
6.80000	-46009
6.80833	-51792
6.81667	-56694
6.82500	-60548
6.83333	-63475
6.84167	-65640
6.85000	-67159
6.85833	-68221
6.86667	-68942
6.87500	-69440
6.88333	-69789
6.89167	-70047
6.90000	-70249
6.90833	-70412
6.91667	-70553
6.92500	-70678
6.93333	-70801
6.94167	-70921
6.95000	-71043
6.95833	-71169
6.96667	-71295
6.97500	-71424
6.98333	-71548
6.99167	-71664
7.00000	-71772
7.00833	-71866
7.01667	-71947
7.02500	-72013
7.03333	-72062
7.04167	-72089
7.05000	-72080
7.05833	-72034
7.06667	-71958
7.07500	-71855
7.08333	-71749
7.09167	-71656
7.10000	-71593
7.10833	-71589
7.11667	-71653
7.12500	-71778
7.13333	-71967
7.14167	-72193
7.15000	-72434
7.15833	-72679
7.16667	-72905
7.17500	-73110
7.18333	-73281
7.19167	-73409
7.20000	-73501
7.20833	-73565
7.21667	-73611
7.22500	-73647
7.23333	-73684
7.24167	-73722
7.25000	-73760
7.25833	-73800
7.26667	-73842
7.27500	-73890
7.28333	-73939
7.29167	-73988
7.30000	-74036
7.30833	-74079
7.31667	-74119
7.32500	-74155
7.33333	-74190
7.34167	-74223
7.35000	-74253
7.35833	-74282
7.36667	-74307
7.37500	-74328
7.38333	-74341
7.39167	-74346
7.40000	-74343
7.40833	-74335
7.41667	-74324
7.42500	-74311
7.43333	-74298
7.44167	-74284
7.45000	-74266
7.45833	-74242
7.46667	-74212
7.47500	-74174
7.48333	-74133
7.49167	-74091
7.50000	-74052
7.50833	-74020
7.51667	-73994
7.52500	-73974
7.53333	-73960
7.54167	-73953
7.55000	-73953
7.55833	-73962
7.56667	-73978
7.57500	-74002
7.58333	-74031
7.59167	-74065
7.60000	-74104
7.60833	-74144
7.61667	-74187
7.62500	-74226
7.63333	-74260
7.64167	-74285
7.65000	-74295
7.65833	-74289
7.66667	-74268
7.67500	-74229
7.68333	-74184
7.69167	-74138
7.70000	-74098
7.70833	-74072
7.71667	-74061
7.72500	-74067
7.73333	-74088
7.74167	-74123
7.75000	-74168
7.75833	-74222
7.76667	-74275
7.77500	-74325
7.78333	-74364
7.79167	-74383
7.80000	-74380
7.80833	-74353
7.81667	-74301
7.82500	-74225
7.83333	-74122
7.84167	-73997
7.85000	-73857
7.85833	-73704
7.86667	-73565
7.87500	-73443
7.88333	-73354
7.89167	-73307
7.90000	-73301
7.90833	-73337
7.91667	-73412
7.92500	-73512
7.93333	-73636
7.94167	-73769
7.95000	-73902
7.95833	-74033
7.96667	-74153
7.97500	-74264
7.98333	-74364
7.99167	-74454
8.00000	-74535

[Header]
Application Name	LabSolutions
Version	5.98SP1
Data File Name	C:\LabSolutions\Data\spiroindane_pyrrolidines\level3_03302021_2.lcd
Output Date	4/9/2021
Output Time	4:33:56 PM

[Configuration]
Instrument Name	MDCM-420DJB2-Instrument1
Instrument #	1
Line #	1
# of Detectors	1
Detector ID	Detector A
Detector Name	Detector A
# of Channels	2

[LC Chromatogram(Detector A-Ch1)]
Interval(msec)	500
# of Points	961
Start Time(min)	0.000
End Time(min)	8.000
Intensity Units	mAU
Intensity Multiplier	0.001
Wavelength(nm)	254nm
R.Time (min)	Intensity
0.00000	-37
0.00833	-37
0.01667	-16
0.02500	-2
0.03333	-3
0.04167	-3
0.05000	-3
0.05833	-3
0.06667	-3
0.07500	-3
0.08333	-3
0.09167	-2
0.10000	-1
0.10833	0
0.11667	-0
0.12500	-1
0.13333	-2
0.14167	-2
0.15000	-2
0.15833	-2
0.16667	-3
0.17500	-5
0.18333	-8
0.19167	-11
0.20000	-14
0.20833	-16
0.21667	-16
0.22500	-15
0.23333	-15
0.24167	-15
0.25000	-17
0.25833	-19
0.26667	-22
0.27500	-24
0.28333	-25
0.29167	-23
0.30000	-21
0.30833	-19
0.31667	-17
0.32500	-15
0.33333	-14
0.34167	-12
0.35000	-9
0.35833	-4
0.36667	2
0.37500	9
0.38333	15
0.39167	21
0.40000	26
0.40833	29
0.41667	31
0.42500	32
0.43333	33
0.44167	37
0.45000	41
0.45833	45
0.46667	48
0.47500	49
0.48333	47
0.49167	44
0.50000	42
0.50833	42
0.51667	45
0.52500	48
0.53333	54
0.54167	64
0.55000	81
0.55833	124
0.56667	211
0.57500	331
0.58333	466
0.59167	603
0.60000	699
0.60833	732
0.61667	715
0.62500	660
0.63333	581
0.64167	500
0.65000	422
0.65833	352
0.66667	288
0.67500	231
0.68333	184
0.69167	145
0.70000	114
0.70833	90
0.71667	73
0.72500	60
0.73333	51
0.74167	43
0.75000	36
0.75833	31
0.76667	27
0.77500	24
0.78333	22
0.79167	22
0.80000	23
0.80833	24
0.81667	25
0.82500	24
0.83333	23
0.84167	21
0.85000	21
0.85833	23
0.86667	25
0.87500	27
0.88333	28
0.89167	26
0.90000	23
0.90833	20
0.91667	17
0.92500	16
0.93333	17
0.94167	18
0.95000	19
0.95833	21
0.96667	22
0.97500	23
0.98333	24
0.99167	26
1.00000	28
1.00833	28
1.01667	26
1.02500	25
1.03333	24
1.04167	24
1.05000	26
1.05833	27
1.06667	28
1.07500	29
1.08333	29
1.09167	30
1.10000	32
1.10833	33
1.11667	33
1.12500	33
1.13333	32
1.14167	31
1.15000	32
1.15833	33
1.16667	35
1.17500	38
1.18333	39
1.19167	40
1.20000	39
1.20833	37
1.21667	35
1.22500	34
1.23333	33
1.24167	32
1.25000	30
1.25833	28
1.26667	25
1.27500	22
1.28333	19
1.29167	17
1.30000	16
1.30833	17
1.31667	18
1.32500	20
1.33333	23
1.34167	27
1.35000	30
1.35833	34
1.36667	37
1.37500	41
1.38333	46
1.39167	51
1.40000	55
1.40833	59
1.41667	62
1.42500	65
1.43333	68
1.44167	73
1.45000	78
1.45833	83
1.46667	89
1.47500	96
1.48333	103
1.49167	111
1.50000	120
1.50833	129
1.51667	138
1.52500	146
1.53333	154
1.54167	162
1.55000	169
1.55833	177
1.56667	185
1.57500	194
1.58333	205
1.59167	216
1.60000	228
1.60833	241
1.61667	256
1.62500	272
1.63333	288
1.64167	305
1.65000	321
1.65833	337
1.66667	354
1.67500	370
1.68333	387
1.69167	403
1.70000	419
1.70833	437
1.71667	457
1.72500	479
1.73333	504
1.74167	531
1.75000	561
1.75833	593
1.76667	627
1.77500	663
1.78333	697
1.79167	730
1.80000	759
1.80833	785
1.81667	809
1.82500	833
1.83333	859
1.84167	882
1.85000	903
1.85833	920
1.86667	931
1.87500	938
1.88333	941
1.89167	944
1.90000	951
1.90833	969
1.91667	997
1.92500	1035
1.93333	1083
1.94167	1135
1.95000	1190
1.95833	1251
1.96667	1324
1.97500	1402
1.98333	1476
1.99167	1541
2.00000	1584
2.00833	1598
2.01667	1591
2.02500	1569
2.03333	1539
2.04167	1512
2.05000	1491
2.05833	1478
2.06667	1476
2.07500	1484
2.08333	1499
2.09167	1520
2.10000	1544
2.10833	1569
2.11667	1594
2.12500	1614
2.13333	1629
2.14167	1636
2.15000	1634
2.15833	1624
2.16667	1610
2.17500	1595
2.18333	1582
2.19167	1574
2.20000	1572
2.20833	1579
2.21667	1599
2.22500	1640
2.23333	1709
2.24167	1821
2.25000	1994
2.25833	2240
2.26667	2588
2.27500	3046
2.28333	3630
2.29167	4365
2.30000	5224
2.30833	6248
2.31667	7389
2.32500	8638
2.33333	9878
2.34167	10711
2.35000	10993
2.35833	10638
2.36667	9545
2.37500	8001
2.38333	6453
2.39167	5041
2.40000	3971
2.40833	3282
2.41667	2880
2.42500	2663
2.43333	2552
2.44167	2483
2.45000	2421
2.45833	2372
2.46667	2342
2.47500	2350
2.48333	2427
2.49167	2591
2.50000	2854
2.50833	3242
2.51667	3735
2.52500	4341
2.53333	5101
2.54167	5969
2.55000	6859
2.55833	7711
2.56667	8563
2.57500	9321
2.58333	9772
2.59167	9844
2.60000	9421
2.60833	8406
2.61667	7058
2.62500	5643
2.63333	4285
2.64167	3229
2.65000	2506
2.65833	2050
2.66667	1780
2.67500	1629
2.68333	1550
2.69167	1514
2.70000	1504
2.70833	1511
2.71667	1527
2.72500	1546
2.73333	1565
2.74167	1576
2.75000	1578
2.75833	1574
2.76667	1565
2.77500	1556
2.78333	1550
2.79167	1551
2.80000	1558
2.80833	1570
2.81667	1585
2.82500	1598
2.83333	1608
2.84167	1609
2.85000	1597
2.85833	1575
2.86667	1543
2.87500	1506
2.88333	1470
2.89167	1437
2.90000	1412
2.90833	1394
2.91667	1384
2.92500	1382
2.93333	1387
2.94167	1398
2.95000	1413
2.95833	1432
2.96667	1452
2.97500	1472
2.98333	1489
2.99167	1502
3.00000	1509
3.00833	1510
3.01667	1506
3.02500	1498
3.03333	1487
3.04167	1476
3.05000	1466
3.05833	1459
3.06667	1458
3.07500	1460
3.08333	1469
3.09167	1482
3.10000	1496
3.10833	1508
3.11667	1516
3.12500	1517
3.13333	1511
3.14167	1501
3.15000	1488
3.15833	1474
3.16667	1461
3.17500	1450
3.18333	1442
3.19167	1435
3.20000	1429
3.20833	1427
3.21667	1426
3.22500	1425
3.23333	1423
3.24167	1421
3.25000	1417
3.25833	1413
3.26667	1408
3.27500	1401
3.28333	1394
3.29167	1387
3.30000	1380
3.30833	1376
3.31667	1372
3.32500	1370
3.33333	1370
3.34167	1371
3.35000	1374
3.35833	1379
3.36667	1383
3.37500	1388
3.38333	1393
3.39167	1397
3.40000	1400
3.40833	1403
3.41667	1407
3.42500	1413
3.43333	1420
3.44167	1428
3.45000	1437
3.45833	1448
3.46667	1458
3.47500	1470
3.48333	1485
3.49167	1508
3.50000	1545
3.50833	1607
3.51667	1717
3.52500	1911
3.53333	2242
3.54167	2825
3.55000	3800
3.55833	5434
3.56667	8129
3.57500	12338
3.58333	18897
3.59167	28602
3.60000	42032
3.60833	60593
3.61667	83510
3.62500	110753
3.63333	141525
3.64167	171391
3.65000	199544
3.65833	221340
3.66667	233557
3.67500	235861
3.68333	227214
3.69167	208157
3.70000	183217
3.70833	153685
3.71667	123404
3.72500	95597
3.73333	70749
3.74167	50834
3.75000	35321
3.75833	23903
3.76667	15957
3.77500	10555
3.78333	7071
3.79167	4871
3.80000	3525
3.80833	2719
3.81667	2243
3.82500	1967
3.83333	1806
3.84167	1715
3.85000	1663
3.85833	1634
3.86667	1618
3.87500	1609
3.88333	1602
3.89167	1595
3.90000	1588
3.90833	1579
3.91667	1569
3.92500	1557
3.93333	1544
3.94167	1529
3.95000	1514
3.95833	1499
3.96667	1485
3.97500	1472
3.98333	1461
3.99167	1453
4.00000	1446
4.00833	1440
4.01667	1436
4.02500	1432
4.03333	1430
4.04167	1430
4.05000	1431
4.05833	1432
4.06667	1433
4.07500	1434
4.08333	1435
4.09167	1434
4.10000	1434
4.10833	1432
4.11667	1430
4.12500	1427
4.13333	1424
4.14167	1419
4.15000	1413
4.15833	1406
4.16667	1398
4.17500	1390
4.18333	1382
4.19167	1374
4.20000	1367
4.20833	1360
4.21667	1355
4.22500	1351
4.23333	1348
4.24167	1346
4.25000	1343
4.25833	1340
4.26667	1337
4.27500	1334
4.28333	1332
4.29167	1330
4.30000	1329
4.30833	1330
4.31667	1332
4.32500	1334
4.33333	1337
4.34167	1339
4.35000	1341
4.35833	1344
4.36667	1345
4.37500	1347
4.38333	1348
4.39167	1349
4.40000	1350
4.40833	1353
4.41667	1356
4.42500	1360
4.43333	1363
4.44167	1367
4.45000	1369
4.45833	1371
4.46667	1372
4.47500	1373
4.48333	1372
4.49167	1371
4.50000	1369
4.50833	1366
4.51667	1363
4.52500	1361
4.53333	1358
4.54167	1356
4.55000	1353
4.55833	1349
4.56667	1345
4.57500	1340
4.58333	1334
4.59167	1329
4.60000	1324
4.60833	1319
4.61667	1315
4.62500	1311
4.63333	1307
4.64167	1304
4.65000	1302
4.65833	1301
4.66667	1300
4.67500	1301
4.68333	1302
4.69167	1302
4.70000	1302
4.70833	1301
4.71667	1301
4.72500	1302
4.73333	1304
4.74167	1308
4.75000	1312
4.75833	1316
4.76667	1319
4.77500	1322
4.78333	1323
4.79167	1322
4.80000	1320
4.80833	1318
4.81667	1317
4.82500	1315
4.83333	1312
4.84167	1309
4.85000	1306
4.85833	1304
4.86667	1301
4.87500	1299
4.88333	1297
4.89167	1294
4.90000	1291
4.90833	1289
4.91667	1287
4.92500	1285
4.93333	1284
4.94167	1283
4.95000	1282
4.95833	1282
4.96667	1283
4.97500	1284
4.98333	1287
4.99167	1289
5.00000	1290
5.00833	1291
5.01667	1290
5.02500	1289
5.03333	1288
5.04167	1286
5.05000	1286
5.05833	1285
5.06667	1286
5.07500	1287
5.08333	1289
5.09167	1291
5.10000	1292
5.10833	1293
5.11667	1294
5.12500	1295
5.13333	1296
5.14167	1297
5.15000	1295
5.15833	1292
5.16667	1289
5.17500	1288
5.18333	1289
5.19167	1293
5.20000	1299
5.20833	1306
5.21667	1315
5.22500	1326
5.23333	1342
5.24167	1365
5.25000	1396
5.25833	1438
5.26667	1500
5.27500	1586
5.28333	1707
5.29167	1875
5.30000	2102
5.30833	2412
5.31667	2817
5.32500	3347
5.33333	4031
5.34167	4876
5.35000	5946
5.35833	7215
5.36667	8739
5.37500	10509
5.38333	12472
5.39167	14690
5.40000	16988
5.40833	19401
5.41667	21795
5.42500	24034
5.43333	26112
5.44167	27806
5.45000	29109
5.45833	29927
5.46667	30179
5.47500	29899
5.48333	29089
5.49167	27751
5.50000	26053
5.50833	23987
5.51667	21712
5.52500	19352
5.53333	16919
5.54167	14626
5.55000	12434
5.55833	10463
5.56667	8737
5.57500	7237
5.58333	6015
5.59167	5008
5.60000	4225
5.60833	3629
5.61667	3184
5.62500	2870
5.63333	2650
5.64167	2503
5.65000	2407
5.65833	2343
5.66667	2297
5.67500	2259
5.68333	2223
5.69167	2183
5.70000	2140
5.70833	2091
5.71667	2038
5.72500	1982
5.73333	1923
5.74167	1865
5.75000	1807
5.75833	1753
5.76667	1705
5.77500	1661
5.78333	1623
5.79167	1591
5.80000	1565
5.80833	1545
5.81667	1530
5.82500	1520
5.83333	1512
5.84167	1506
5.85000	1500
5.85833	1494
5.86667	1490
5.87500	1488
5.88333	1487
5.89167	1487
5.90000	1487
5.90833	1488
5.91667	1488
5.92500	1490
5.93333	1494
5.94167	1498
5.95000	1503
5.95833	1507
5.96667	1511
5.97500	1514
5.98333	1518
5.99167	1524
6.00000	1532
6.00833	1542
6.01667	1555
6.02500	1570
6.03333	1589
6.04167	1613
6.05000	1643
6.05833	1679
6.06667	1723
6.07500	1777
6.08333	1841
6.09167	1918
6.10000	2007
6.10833	2110
6.11667	2222
6.12500	2335
6.13333	2448
6.14167	2548
6.15000	2631
6.15833	2690
6.16667	2720
6.17500	2721
6.18333	2692
6.19167	2635
6.20000	2560
6.20833	2469
6.21667	2370
6.22500	2274
6.23333	2181
6.24167	2100
6.25000	2029
6.25833	1970
6.26667	1920
6.27500	1880
6.28333	1849
6.29167	1824
6.30000	1805
6.30833	1790
6.31667	1779
6.32500	1769
6.33333	1762
6.34167	1756
6.35000	1752
6.35833	1749
6.36667	1747
6.37500	1747
6.38333	1748
6.39167	1750
6.40000	1752
6.40833	1753
6.41667	1752
6.42500	1751
6.43333	1748
6.44167	1745
6.45000	1743
6.45833	1740
6.46667	1739
6.47500	1740
6.48333	1741
6.49167	1743
6.50000	1745
6.50833	1749
6.51667	1754
6.52500	1761
6.53333	1769
6.54167	1777
6.55000	1785
6.55833	1793
6.56667	1803
6.57500	1816
6.58333	1840
6.59167	1881
6.60000	1956
6.60833	2088
6.61667	2314
6.62500	2701
6.63333	3316
6.64167	4278
6.65000	5731
6.65833	7751
6.66667	10555
6.67500	14143
6.68333	18439
6.69167	23528
6.70000	28773
6.70833	34057
6.71667	38815
6.72500	42374
6.73333	44606
6.74167	45104
6.75000	43740
6.75833	40935
6.76667	36841
6.77500	31890
6.78333	26798
6.79167	21668
6.80000	17088
6.80833	13155
6.81667	9926
6.82500	7472
6.83333	5631
6.84167	4339
6.85000	3458
6.85833	2881
6.86667	2520
6.87500	2302
6.88333	2176
6.89167	2109
6.90000	2077
6.90833	2063
6.91667	2060
6.92500	2061
6.93333	2065
6.94167	2068
6.95000	2071
6.95833	2073
6.96667	2075
6.97500	2077
6.98333	2080
6.99167	2085
7.00000	2095
7.00833	2114
7.01667	2146
7.02500	2198
7.03333	2274
7.04167	2380
7.05000	2525
7.05833	2698
7.06667	2902
7.07500	3120
7.08333	3324
7.09167	3504
7.10000	3629
7.10833	3681
7.11667	3661
7.12500	3568
7.13333	3412
7.14167	3225
7.15000	3016
7.15833	2814
7.16667	2632
7.17500	2475
7.18333	2354
7.19167	2265
7.20000	2205
7.20833	2172
7.21667	2158
7.22500	2158
7.23333	2168
7.24167	2181
7.25000	2194
7.25833	2203
7.26667	2207
7.27500	2203
7.28333	2194
7.29167	2181
7.30000	2165
7.30833	2150
7.31667	2137
7.32500	2127
7.33333	2121
7.34167	2120
7.35000	2123
7.35833	2131
7.36667	2143
7.37500	2161
7.38333	2184
7.39167	2213
7.40000	2248
7.40833	2290
7.41667	2339
7.42500	2396
7.43333	2462
7.44167	2534
7.45000	2617
7.45833	2707
7.46667	2808
7.47500	2918
7.48333	3034
7.49167	3160
7.50000	3288
7.50833	3421
7.51667	3553
7.52500	3679
7.53333	3800
7.54167	3903
7.55000	3988
7.55833	4050
7.56667	4083
7.57500	4089
7.58333	4067
7.59167	4019
7.60000	3952
7.60833	3866
7.61667	3771
7.62500	3673
7.63333	3574
7.64167	3487
7.65000	3413
7.65833	3356
7.66667	3321
7.67500	3303
7.68333	3300
7.69167	3308
7.70000	3314
7.70833	3310
7.71667	3289
7.72500	3243
7.73333	3169
7.74167	3077
7.75000	2960
7.75833	2818
7.76667	2674
7.77500	2547
7.78333	2442
7.79167	2352
7.80000	2282
7.80833	2231
7.81667	2199
7.82500	2182
7.83333	2181
7.84167	2192
7.85000	2211
7.85833	2233
7.86667	2258
7.87500	2284
7.88333	2308
7.89167	2330
7.90000	2351
7.90833	2367
7.91667	2380
7.92500	2390
7.93333	2400
7.94167	2410
7.95000	2420
7.95833	2429
7.96667	2436
7.97500	2438
7.98333	2434
7.99167	2423
8.00000	2407

[LC Chromatogram(Detector A-Ch2)]
Interval(msec)	500
# of Points	961
Start Time(min)	0.000
End Time(min)	8.000
Intensity Units	mAU
Intensity Multiplier	0.001
Wavelength(nm)	220nm
R.Time (min)	Intensity
0.00000	-145
0.00833	-145
0.01667	-65
0.02500	32
0.03333	68
0.04167	108
0.05000	151
0.05833	194
0.06667	238
0.07500	283
0.08333	329
0.09167	379
0.10000	436
0.10833	495
0.11667	550
0.12500	604
0.13333	656
0.14167	709
0.15000	759
0.15833	805
0.16667	846
0.17500	882
0.18333	917
0.19167	954
0.20000	997
0.20833	1041
0.21667	1079
0.22500	1112
0.23333	1142
0.24167	1172
0.25000	1202
0.25833	1229
0.26667	1255
0.27500	1277
0.28333	1294
0.29167	1305
0.30000	1307
0.30833	1302
0.31667	1287
0.32500	1267
0.33333	1256
0.34167	1257
0.35000	1263
0.35833	1268
0.36667	1268
0.37500	1262
0.38333	1242
0.39167	1181
0.40000	1065
0.40833	947
0.41667	892
0.42500	924
0.43333	1067
0.44167	1322
0.45000	1571
0.45833	1726
0.46667	1775
0.47500	1725
0.48333	1598
0.49167	1468
0.50000	1369
0.50833	1311
0.51667	1300
0.52500	1322
0.53333	1349
0.54167	1381
0.55000	1496
0.55833	1773
0.56667	2180
0.57500	2646
0.58333	3009
0.59167	2664
0.60000	1223
0.60833	-887
0.61667	-3212
0.62500	-5375
0.63333	-6609
0.64167	-6710
0.65000	-6103
0.65833	-5114
0.66667	-3985
0.67500	-2932
0.68333	-1991
0.69167	-1240
0.70000	-672
0.70833	-261
0.71667	15
0.72500	192
0.73333	296
0.74167	349
0.75000	370
0.75833	373
0.76667	369
0.77500	367
0.78333	369
0.79167	367
0.80000	358
0.80833	344
0.81667	327
0.82500	311
0.83333	296
0.84167	283
0.85000	272
0.85833	263
0.86667	257
0.87500	259
0.88333	268
0.89167	279
0.90000	287
0.90833	292
0.91667	291
0.92500	287
0.93333	285
0.94167	289
0.95000	299
0.95833	314
0.96667	332
0.97500	348
0.98333	360
0.99167	366
1.00000	363
1.00833	357
1.01667	354
1.02500	356
1.03333	361
1.04167	367
1.05000	366
1.05833	353
1.06667	331
1.07500	309
1.08333	290
1.09167	279
1.10000	277
1.10833	279
1.11667	281
1.12500	280
1.13333	277
1.14167	272
1.15000	269
1.15833	271
1.16667	276
1.17500	283
1.18333	289
1.19167	294
1.20000	296
1.20833	296
1.21667	296
1.22500	295
1.23333	294
1.24167	294
1.25000	288
1.25833	273
1.26667	247
1.27500	214
1.28333	174
1.29167	130
1.30000	80
1.30833	27
1.31667	-28
1.32500	-87
1.33333	-147
1.34167	-209
1.35000	-274
1.35833	-347
1.36667	-431
1.37500	-525
1.38333	-636
1.39167	-762
1.40000	-910
1.40833	-1072
1.41667	-1242
1.42500	-1421
1.43333	-1599
1.44167	-1783
1.45000	-1973
1.45833	-2177
1.46667	-2396
1.47500	-2621
1.48333	-2858
1.49167	-3097
1.50000	-3344
1.50833	-3596
1.51667	-3853
1.52500	-4122
1.53333	-4392
1.54167	-4676
1.55000	-4965
1.55833	-5269
1.56667	-5585
1.57500	-5901
1.58333	-6229
1.59167	-6554
1.60000	-6891
1.60833	-7232
1.61667	-7577
1.62500	-7932
1.63333	-8285
1.64167	-8652
1.65000	-9019
1.65833	-9393
1.66667	-9770
1.67500	-10133
1.68333	-10493
1.69167	-10842
1.70000	-11197
1.70833	-11553
1.71667	-11911
1.72500	-12278
1.73333	-12633
1.74167	-12991
1.75000	-13342
1.75833	-13698
1.76667	-14059
1.77500	-14420
1.78333	-14793
1.79167	-15165
1.80000	-15551
1.80833	-15941
1.81667	-16338
1.82500	-16749
1.83333	-17160
1.84167	-17591
1.85000	-18031
1.85833	-18499
1.86667	-18991
1.87500	-19492
1.88333	-20017
1.89167	-20536
1.90000	-21065
1.90833	-21589
1.91667	-22106
1.92500	-22624
1.93333	-23115
1.94167	-23597
1.95000	-24056
1.95833	-24505
1.96667	-24950
1.97500	-25393
1.98333	-25856
1.99167	-26322
2.00000	-26813
2.00833	-27322
2.01667	-27855
2.02500	-28423
2.03333	-29007
2.04167	-29629
2.05000	-30248
2.05833	-30865
2.06667	-31465
2.07500	-32017
2.08333	-32535
2.09167	-32994
2.10000	-33408
2.10833	-33798
2.11667	-34193
2.12500	-34616
2.13333	-35072
2.14167	-35586
2.15000	-36111
2.15833	-36641
2.16667	-37157
2.17500	-37632
2.18333	-38077
2.19167	-38467
2.20000	-38810
2.20833	-39086
2.21667	-39271
2.22500	-39330
2.23333	-39157
2.24167	-38667
2.25000	-37725
2.25833	-36127
2.26667	-33780
2.27500	-30492
2.28333	-26047
2.29167	-20467
2.30000	-13353
2.30833	-4956
2.31667	4829
2.32500	15673
2.33333	26013
2.34167	35265
2.35000	40039
2.35833	37560
2.36667	28800
2.37500	15560
2.38333	-757
2.39167	-15335
2.40000	-26245
2.40833	-33651
2.41667	-38219
2.42500	-40843
2.43333	-42270
2.44167	-42996
2.45000	-43273
2.45833	-43213
2.46667	-42812
2.47500	-41943
2.48333	-40498
2.49167	-38381
2.50000	-35363
2.50833	-31523
2.51667	-26785
2.52500	-21091
2.53333	-14946
2.54167	-7750
2.55000	691
2.55833	9384
2.56667	17322
2.57500	24226
2.58333	29910
2.59167	31773
2.60000	28098
2.60833	19784
2.61667	7610
2.62500	-6938
2.63333	-19820
2.64167	-29893
2.65000	-37029
2.65833	-41601
2.66667	-44354
2.67500	-45936
2.68333	-46820
2.69167	-47300
2.70000	-47557
2.70833	-47685
2.71667	-47730
2.72500	-47716
2.73333	-47652
2.74167	-47542
2.75000	-47417
2.75833	-47295
2.76667	-47202
2.77500	-47176
2.78333	-47228
2.79167	-47339
2.80000	-47501
2.80833	-47680
2.81667	-47843
2.82500	-47984
2.83333	-48100
2.84167	-48198
2.85000	-48284
2.85833	-48364
2.86667	-48442
2.87500	-48519
2.88333	-48597
2.89167	-48666
2.90000	-48725
2.90833	-48770
2.91667	-48797
2.92500	-48807
2.93333	-48803
2.94167	-48787
2.95000	-48760
2.95833	-48722
2.96667	-48679
2.97500	-48637
2.98333	-48598
2.99167	-48573
3.00000	-48569
3.00833	-48583
3.01667	-48615
3.02500	-48661
3.03333	-48711
3.04167	-48764
3.05000	-48815
3.05833	-48860
3.06667	-48901
3.07500	-48932
3.08333	-48954
3.09167	-48974
3.10000	-48996
3.10833	-49018
3.11667	-49038
3.12500	-49054
3.13333	-49062
3.14167	-49059
3.15000	-49046
3.15833	-49024
3.16667	-48993
3.17500	-48955
3.18333	-48906
3.19167	-48839
3.20000	-48745
3.20833	-48624
3.21667	-48473
3.22500	-48296
3.23333	-48123
3.24167	-47959
3.25000	-47834
3.25833	-47769
3.26667	-47767
3.27500	-47834
3.28333	-47967
3.29167	-48136
3.30000	-48333
3.30833	-48531
3.31667	-48710
3.32500	-48864
3.33333	-48981
3.34167	-49065
3.35000	-49123
3.35833	-49165
3.36667	-49196
3.37500	-49218
3.38333	-49235
3.39167	-49246
3.40000	-49249
3.40833	-49248
3.41667	-49248
3.42500	-49251
3.43333	-49258
3.44167	-49269
3.45000	-49280
3.45833	-49289
3.46667	-49297
3.47500	-49302
3.48333	-49303
3.49167	-49294
3.50000	-49270
3.50833	-49225
3.51667	-49149
3.52500	-49029
3.53333	-48844
3.54167	-48562
3.55000	-48124
3.55833	-47437
3.56667	-46380
3.57500	-44724
3.58333	-42229
3.59167	-38604
3.60000	-33355
3.60833	-26464
3.61667	-17594
3.62500	-6801
3.63333	4829
3.64167	17285
3.65000	28605
3.65833	37602
3.66667	43568
3.67500	45107
3.68333	42136
3.69167	35586
3.70000	25634
3.70833	13976
3.71667	2035
3.72500	-9671
3.73333	-19735
3.74167	-28160
3.75000	-34739
3.75833	-39575
3.76667	-43046
3.77500	-45389
3.78333	-46938
3.79167	-47927
3.80000	-48543
3.80833	-48921
3.81667	-49148
3.82500	-49282
3.83333	-49353
3.84167	-49381
3.85000	-49385
3.85833	-49376
3.86667	-49360
3.87500	-49340
3.88333	-49316
3.89167	-49291
3.90000	-49263
3.90833	-49233
3.91667	-49203
3.92500	-49172
3.93333	-49142
3.94167	-49112
3.95000	-49086
3.95833	-49068
3.96667	-49056
3.97500	-49055
3.98333	-49063
3.99167	-49081
4.00000	-49110
4.00833	-49146
4.01667	-49188
4.02500	-49235
4.03333	-49276
4.04167	-49311
4.05000	-49339
4.05833	-49362
4.06667	-49381
4.07500	-49396
4.08333	-49407
4.09167	-49414
4.10000	-49415
4.10833	-49414
4.11667	-49413
4.12500	-49414
4.13333	-49415
4.14167	-49416
4.15000	-49417
4.15833	-49420
4.16667	-49426
4.17500	-49438
4.18333	-49454
4.19167	-49475
4.20000	-49500
4.20833	-49523
4.21667	-49537
4.22500	-49541
4.23333	-49540
4.24167	-49537
4.25000	-49538
4.25833	-49545
4.26667	-49556
4.27500	-49565
4.28333	-49567
4.29167	-49565
4.30000	-49558
4.30833	-49550
4.31667	-49546
4.32500	-49545
4.33333	-49544
4.34167	-49540
4.35000	-49536
4.35833	-49535
4.36667	-49536
4.37500	-49539
4.38333	-49541
4.39167	-49537
4.40000	-49524
4.40833	-49507
4.41667	-49493
4.42500	-49482
4.43333	-49473
4.44167	-49466
4.45000	-49460
4.45833	-49457
4.46667	-49458
4.47500	-49464
4.48333	-49476
4.49167	-49487
4.50000	-49496
4.50833	-49504
4.51667	-49514
4.52500	-49525
4.53333	-49535
4.54167	-49543
4.55000	-49549
4.55833	-49551
4.56667	-49553
4.57500	-49558
4.58333	-49568
4.59167	-49582
4.60000	-49598
4.60833	-49611
4.61667	-49617
4.62500	-49615
4.63333	-49607
4.64167	-49597
4.65000	-49589
4.65833	-49585
4.66667	-49587
4.67500	-49594
4.68333	-49606
4.69167	-49619
4.70000	-49629
4.70833	-49637
4.71667	-49640
4.72500	-49637
4.73333	-49632
4.74167	-49626
4.75000	-49619
4.75833	-49611
4.76667	-49604
4.77500	-49602
4.78333	-49605
4.79167	-49611
4.80000	-49617
4.80833	-49621
4.81667	-49619
4.82500	-49612
4.83333	-49606
4.84167	-49602
4.85000	-49601
4.85833	-49601
4.86667	-49604
4.87500	-49609
4.88333	-49618
4.89167	-49630
4.90000	-49646
4.90833	-49663
4.91667	-49674
4.92500	-49678
4.93333	-49676
4.94167	-49666
4.95000	-49653
4.95833	-49640
4.96667	-49628
4.97500	-49619
4.98333	-49612
4.99167	-49609
5.00000	-49609
5.00833	-49611
5.01667	-49616
5.02500	-49622
5.03333	-49629
5.04167	-49636
5.05000	-49643
5.05833	-49654
5.06667	-49668
5.07500	-49686
5.08333	-49707
5.09167	-49727
5.10000	-49744
5.10833	-49758
5.11667	-49768
5.12500	-49774
5.13333	-49781
5.14167	-49792
5.15000	-49807
5.15833	-49824
5.16667	-49843
5.17500	-49862
5.18333	-49879
5.19167	-49893
5.20000	-49903
5.20833	-49907
5.21667	-49901
5.22500	-49880
5.23333	-49837
5.24167	-49756
5.25000	-49610
5.25833	-49385
5.26667	-49069
5.27500	-48612
5.28333	-47953
5.29167	-47038
5.30000	-45749
5.30833	-44020
5.31667	-41690
5.32500	-38609
5.33333	-34697
5.34167	-29627
5.35000	-23460
5.35833	-15847
5.36667	-6762
5.37500	3654
5.38333	15795
5.39167	28839
5.40000	43101
5.40833	57833
5.41667	72374
5.42500	86690
5.43333	99347
5.44167	110373
5.45000	118881
5.45833	124282
5.46667	126603
5.47500	125436
5.48333	120780
5.49167	113300
5.50000	102862
5.50833	90401
5.51667	76575
5.52500	61542
5.53333	46718
5.54167	31896
5.55000	18048
5.55833	5417
5.56667	-6007
5.57500	-15687
5.58333	-24023
5.59167	-30796
5.60000	-36248
5.60833	-40564
5.61667	-43837
5.62500	-46344
5.63333	-48178
5.64167	-49525
5.65000	-50503
5.65833	-51213
5.66667	-51743
5.67500	-52139
5.68333	-52450
5.69167	-52698
5.70000	-52908
5.70833	-53095
5.71667	-53272
5.72500	-53449
5.73333	-53623
5.74167	-53802
5.75000	-53977
5.75833	-54147
5.76667	-54312
5.77500	-54463
5.78333	-54607
5.79167	-54740
5.80000	-54870
5.80833	-54994
5.81667	-55109
5.82500	-55218
5.83333	-55320
5.84167	-55419
5.85000	-55518
5.85833	-55622
5.86667	-55733
5.87500	-55845
5.88333	-55964
5.89167	-56083
5.90000	-56205
5.90833	-56326
5.91667	-56437
5.92500	-56542
5.93333	-56639
5.94167	-56734
5.95000	-56828
5.95833	-56926
5.96667	-57029
5.97500	-57134
5.98333	-57242
5.99167	-57351
6.00000	-57464
6.00833	-57579
6.01667	-57693
6.02500	-57808
6.03333	-57917
6.04167	-58022
6.05000	-58123
6.05833	-58221
6.06667	-58318
6.07500	-58412
6.08333	-58506
6.09167	-58597
6.10000	-58685
6.10833	-58771
6.11667	-58849
6.12500	-58925
6.13333	-58998
6.14167	-59074
6.15000	-59157
6.15833	-59255
6.16667	-59367
6.17500	-59487
6.18333	-59618
6.19167	-59745
6.20000	-59868
6.20833	-59988
6.21667	-60107
6.22500	-60230
6.23333	-60359
6.24167	-60501
6.25000	-60645
6.25833	-60790
6.26667	-60936
6.27500	-61079
6.28333	-61226
6.29167	-61372
6.30000	-61526
6.30833	-61682
6.31667	-61831
6.32500	-61978
6.33333	-62115
6.34167	-62249
6.35000	-62381
6.35833	-62514
6.36667	-62651
6.37500	-62788
6.38333	-62930
6.39167	-63066
6.40000	-63197
6.40833	-63322
6.41667	-63440
6.42500	-63557
6.43333	-63671
6.44167	-63788
6.45000	-63906
6.45833	-64025
6.46667	-64145
6.47500	-64263
6.48333	-64383
6.49167	-64500
6.50000	-64619
6.50833	-64738
6.51667	-64853
6.52500	-64967
6.53333	-65080
6.54167	-65197
6.55000	-65315
6.55833	-65438
6.56667	-65561
6.57500	-65667
6.58333	-65748
6.59167	-65771
6.60000	-65704
6.60833	-65486
6.61667	-65011
6.62500	-64154
6.63333	-62664
6.64167	-60254
6.65000	-56635
6.65833	-51252
6.66667	-43917
6.67500	-34418
6.68333	-22360
6.69167	-8864
6.70000	6161
6.70833	21203
6.71667	34578
6.72500	45737
6.73333	52634
6.74167	54685
6.75000	52081
6.75833	44585
6.76667	33284
6.77500	19910
6.78333	4872
6.79167	-9650
6.80000	-23140
6.80833	-34967
6.81667	-44525
6.82500	-52166
6.83333	-57834
6.84167	-61940
6.85000	-64811
6.85833	-66736
6.86667	-68017
6.87500	-68847
6.88333	-69394
6.89167	-69759
6.90000	-70016
6.90833	-70209
6.91667	-70365
6.92500	-70504
6.93333	-70633
6.94167	-70764
6.95000	-70895
6.95833	-71030
6.96667	-71167
6.97500	-71295
6.98333	-71414
6.99167	-71518
7.00000	-71609
7.00833	-71682
7.01667	-71730
7.02500	-71746
7.03333	-71710
7.04167	-71609
7.05000	-71444
7.05833	-71206
7.06667	-70911
7.07500	-70598
7.08333	-70276
7.09167	-70013
7.10000	-69844
7.10833	-69789
7.11667	-69880
7.12500	-70108
7.13333	-70432
7.14167	-70847
7.15000	-71286
7.15833	-71718
7.16667	-72123
7.17500	-72464
7.18333	-72748
7.19167	-72964
7.20000	-73118
7.20833	-73219
7.21667	-73273
7.22500	-73293
7.23333	-73295
7.24167	-73289
7.25000	-73287
7.25833	-73300
7.26667	-73327
7.27500	-73369
7.28333	-73425
7.29167	-73485
7.30000	-73547
7.30833	-73606
7.31667	-73658
7.32500	-73703
7.33333	-73739
7.34167	-73769
7.35000	-73794
7.35833	-73813
7.36667	-73828
7.37500	-73837
7.38333	-73842
7.39167	-73840
7.40000	-73832
7.40833	-73814
7.41667	-73780
7.42500	-73729
7.43333	-73665
7.44167	-73589
7.45000	-73505
7.45833	-73416
7.46667	-73320
7.47500	-73213
7.48333	-73090
7.49167	-72958
7.50000	-72815
7.50833	-72671
7.51667	-72537
7.52500	-72412
7.53333	-72305
7.54167	-72213
7.55000	-72142
7.55833	-72093
7.56667	-72067
7.57500	-72071
7.58333	-72106
7.59167	-72164
7.60000	-72246
7.60833	-72344
7.61667	-72449
7.62500	-72562
7.63333	-72670
7.64167	-72774
7.65000	-72865
7.65833	-72940
7.66667	-72998
7.67500	-73033
7.68333	-73048
7.69167	-73049
7.70000	-73041
7.70833	-73035
7.71667	-73045
7.72500	-73076
7.73333	-73130
7.74167	-73212
7.75000	-73319
7.75833	-73438
7.76667	-73555
7.77500	-73664
7.78333	-73769
7.79167	-73858
7.80000	-73925
7.80833	-73966
7.81667	-73970
7.82500	-73931
7.83333	-73848
7.84167	-73728
7.85000	-73588
7.85833	-73431
7.86667	-73267
7.87500	-73121
7.88333	-72998
7.89167	-72909
7.90000	-72873
7.90833	-72890
7.91667	-72955
7.92500	-73059
7.93333	-73178
7.94167	-73304
7.95000	-73426
7.95833	-73537
7.96667	-73641
7.97500	-73737
7.98333	-73831
7.99167	-73921
8.00000	-74008

[Header]
Application Name	LabSolutions
Version	5.98SP1
Data File Name	C:\LabSolutions\Data\spiroindane_pyrrolidines\level4_03302021_1.lcd
Output Date	4/9/2021
Output Time	4:34:13 PM

[Configuration]
Instrument Name	MDCM-420DJB2-Instrument1
Instrument #	1
Line #	1
# of Detectors	1
Detector ID	Detector A
Detector Name	Detector A
# of Channels	2

[LC Chromatogram(Detector A-Ch1)]
Interval(msec)	500
# of Points	961
Start Time(min)	0.000
End Time(min)	8.000
Intensity Units	mAU
Intensity Multiplier	0.001
Wavelength(nm)	254nm
R.Time (min)	Intensity
0.00000	13
0.00833	13
0.01667	5
0.02500	-2
0.03333	-4
0.04167	-5
0.05000	-5
0.05833	-4
0.06667	-2
0.07500	-0
0.08333	2
0.09167	3
0.10000	2
0.10833	-0
0.11667	-3
0.12500	-5
0.13333	-5
0.14167	-4
0.15000	-3
0.15833	-1
0.16667	-1
0.17500	-1
0.18333	-2
0.19167	-2
0.20000	-2
0.20833	-1
0.21667	0
0.22500	1
0.23333	2
0.24167	3
0.25000	2
0.25833	2
0.26667	2
0.27500	2
0.28333	3
0.29167	4
0.30000	5
0.30833	6
0.31667	6
0.32500	6
0.33333	7
0.34167	9
0.35000	12
0.35833	15
0.36667	19
0.37500	22
0.38333	25
0.39167	27
0.40000	29
0.40833	30
0.41667	31
0.42500	31
0.43333	34
0.44167	37
0.45000	41
0.45833	44
0.46667	45
0.47500	45
0.48333	43
0.49167	41
0.50000	40
0.50833	42
0.51667	45
0.52500	49
0.53333	54
0.54167	74
0.55000	119
0.55833	210
0.56667	376
0.57500	598
0.58333	798
0.59167	946
0.60000	1010
0.60833	966
0.61667	851
0.62500	725
0.63333	605
0.64167	502
0.65000	411
0.65833	333
0.66667	266
0.67500	208
0.68333	161
0.69167	122
0.70000	91
0.70833	68
0.71667	51
0.72500	39
0.73333	31
0.74167	25
0.75000	22
0.75833	21
0.76667	20
0.77500	20
0.78333	18
0.79167	17
0.80000	17
0.80833	17
0.81667	18
0.82500	18
0.83333	18
0.84167	17
0.85000	16
0.85833	14
0.86667	13
0.87500	12
0.88333	11
0.89167	11
0.90000	12
0.90833	13
0.91667	15
0.92500	16
0.93333	16
0.94167	16
0.95000	15
0.95833	15
0.96667	16
0.97500	19
0.98333	21
0.99167	21
1.00000	21
1.00833	19
1.01667	18
1.02500	18
1.03333	18
1.04167	19
1.05000	20
1.05833	22
1.06667	25
1.07500	27
1.08333	28
1.09167	28
1.10000	26
1.10833	23
1.11667	20
1.12500	17
1.13333	16
1.14167	16
1.15000	18
1.15833	20
1.16667	23
1.17500	24
1.18333	26
1.19167	27
1.20000	26
1.20833	25
1.21667	23
1.22500	21
1.23333	19
1.24167	17
1.25000	17
1.25833	17
1.26667	17
1.27500	16
1.28333	15
1.29167	12
1.30000	10
1.30833	10
1.31667	10
1.32500	13
1.33333	16
1.34167	19
1.35000	22
1.35833	26
1.36667	29
1.37500	33
1.38333	38
1.39167	43
1.40000	48
1.40833	52
1.41667	56
1.42500	60
1.43333	64
1.44167	68
1.45000	74
1.45833	82
1.46667	91
1.47500	99
1.48333	107
1.49167	114
1.50000	121
1.50833	129
1.51667	137
1.52500	145
1.53333	153
1.54167	162
1.55000	170
1.55833	178
1.56667	188
1.57500	199
1.58333	212
1.59167	225
1.60000	239
1.60833	252
1.61667	266
1.62500	279
1.63333	292
1.64167	305
1.65000	319
1.65833	334
1.66667	350
1.67500	367
1.68333	386
1.69167	406
1.70000	426
1.70833	447
1.71667	469
1.72500	492
1.73333	517
1.74167	543
1.75000	571
1.75833	600
1.76667	628
1.77500	658
1.78333	687
1.79167	715
1.80000	743
1.80833	770
1.81667	798
1.82500	824
1.83333	850
1.84167	871
1.85000	886
1.85833	896
1.86667	900
1.87500	900
1.88333	902
1.89167	909
1.90000	923
1.90833	949
1.91667	983
1.92500	1021
1.93333	1062
1.94167	1104
1.95000	1149
1.95833	1202
1.96667	1272
1.97500	1356
1.98333	1438
1.99167	1514
2.00000	1569
2.00833	1591
2.01667	1588
2.02500	1570
2.03333	1543
2.04167	1520
2.05000	1503
2.05833	1496
2.06667	1500
2.07500	1514
2.08333	1536
2.09167	1567
2.10000	1601
2.10833	1636
2.11667	1668
2.12500	1694
2.13333	1712
2.14167	1721
2.15000	1722
2.15833	1714
2.16667	1698
2.17500	1678
2.18333	1660
2.19167	1647
2.20000	1647
2.20833	1666
2.21667	1710
2.22500	1788
2.23333	1912
2.24167	2095
2.25000	2362
2.25833	2722
2.26667	3200
2.27500	3811
2.28333	4543
2.29167	5433
2.30000	6433
2.30833	7568
2.31667	8818
2.32500	10147
2.33333	11559
2.34167	12833
2.35000	13888
2.35833	14406
2.36667	13991
2.37500	12704
2.38333	10893
2.39167	8702
2.40000	6703
2.40833	5237
2.41667	4272
2.42500	3690
2.43333	3358
2.44167	3158
2.45000	3010
2.45833	2896
2.46667	2819
2.47500	2790
2.48333	2846
2.49167	3007
2.50000	3278
2.50833	3684
2.51667	4212
2.52500	4847
2.53333	5599
2.54167	6408
2.55000	7292
2.55833	8208
2.56667	9139
2.57500	10089
2.58333	10998
2.59167	11860
2.60000	12427
2.60833	12495
2.61667	12016
2.62500	10898
2.63333	9194
2.64167	7379
2.65000	5641
2.65833	4178
2.66667	3141
2.67500	2471
2.68333	2069
2.69167	1843
2.70000	1728
2.70833	1682
2.71667	1676
2.72500	1688
2.73333	1708
2.74167	1723
2.75000	1727
2.75833	1722
2.76667	1708
2.77500	1692
2.78333	1679
2.79167	1672
2.80000	1673
2.80833	1683
2.81667	1697
2.82500	1710
2.83333	1718
2.84167	1715
2.85000	1698
2.85833	1668
2.86667	1629
2.87500	1584
2.88333	1541
2.89167	1503
2.90000	1473
2.90833	1452
2.91667	1441
2.92500	1438
2.93333	1443
2.94167	1456
2.95000	1475
2.95833	1499
2.96667	1525
2.97500	1553
2.98333	1575
2.99167	1591
3.00000	1599
3.00833	1599
3.01667	1591
3.02500	1579
3.03333	1564
3.04167	1548
3.05000	1534
3.05833	1523
3.06667	1518
3.07500	1522
3.08333	1535
3.09167	1555
3.10000	1577
3.10833	1596
3.11667	1612
3.12500	1620
3.13333	1617
3.14167	1605
3.15000	1588
3.15833	1567
3.16667	1546
3.17500	1527
3.18333	1510
3.19167	1497
3.20000	1486
3.20833	1479
3.21667	1474
3.22500	1470
3.23333	1468
3.24167	1466
3.25000	1465
3.25833	1463
3.26667	1459
3.27500	1454
3.28333	1447
3.29167	1439
3.30000	1430
3.30833	1421
3.31667	1414
3.32500	1408
3.33333	1405
3.34167	1404
3.35000	1406
3.35833	1410
3.36667	1416
3.37500	1424
3.38333	1433
3.39167	1441
3.40000	1448
3.40833	1454
3.41667	1459
3.42500	1465
3.43333	1472
3.44167	1480
3.45000	1490
3.45833	1502
3.46667	1515
3.47500	1530
3.48333	1550
3.49167	1578
3.50000	1625
3.50833	1704
3.51667	1843
3.52500	2091
3.53333	2511
3.54167	3246
3.55000	4479
3.55833	6526
3.56667	9921
3.57500	15242
3.58333	23508
3.59167	35939
3.60000	53214
3.60833	77228
3.61667	107756
3.62500	144138
3.63333	186682
3.64167	229347
3.65000	270714
3.65833	305526
3.66667	327906
3.67500	336990
3.68333	330868
3.69167	309014
3.70000	276986
3.70833	237251
3.71667	193920
3.72500	153066
3.73333	115328
3.74167	84050
3.75000	59246
3.75833	40403
3.76667	27045
3.77500	17761
3.78333	11647
3.79167	7730
3.80000	5289
3.80833	3813
3.81667	2930
3.82500	2412
3.83333	2109
3.84167	1933
3.85000	1830
3.85833	1770
3.86667	1737
3.87500	1720
3.88333	1712
3.89167	1706
3.90000	1701
3.90833	1694
3.91667	1684
3.92500	1671
3.93333	1656
3.94167	1639
3.95000	1622
3.95833	1604
3.96667	1588
3.97500	1572
3.98333	1558
3.99167	1543
4.00000	1530
4.00833	1518
4.01667	1508
4.02500	1501
4.03333	1496
4.04167	1493
4.05000	1491
4.05833	1491
4.06667	1492
4.07500	1493
4.08333	1494
4.09167	1495
4.10000	1495
4.10833	1495
4.11667	1494
4.12500	1491
4.13333	1487
4.14167	1482
4.15000	1474
4.15833	1465
4.16667	1455
4.17500	1444
4.18333	1434
4.19167	1423
4.20000	1413
4.20833	1403
4.21667	1394
4.22500	1388
4.23333	1383
4.24167	1379
4.25000	1376
4.25833	1373
4.26667	1370
4.27500	1368
4.28333	1367
4.29167	1366
4.30000	1365
4.30833	1365
4.31667	1364
4.32500	1364
4.33333	1363
4.34167	1363
4.35000	1364
4.35833	1367
4.36667	1371
4.37500	1377
4.38333	1381
4.39167	1384
4.40000	1386
4.40833	1388
4.41667	1390
4.42500	1392
4.43333	1396
4.44167	1399
4.45000	1403
4.45833	1407
4.46667	1410
4.47500	1413
4.48333	1416
4.49167	1417
4.50000	1417
4.50833	1416
4.51667	1414
4.52500	1411
4.53333	1407
4.54167	1402
4.55000	1396
4.55833	1389
4.56667	1381
4.57500	1371
4.58333	1363
4.59167	1357
4.60000	1351
4.60833	1348
4.61667	1346
4.62500	1344
4.63333	1340
4.64167	1337
4.65000	1334
4.65833	1333
4.66667	1332
4.67500	1331
4.68333	1332
4.69167	1333
4.70000	1334
4.70833	1336
4.71667	1338
4.72500	1340
4.73333	1341
4.74167	1343
4.75000	1346
4.75833	1348
4.76667	1351
4.77500	1352
4.78333	1353
4.79167	1354
4.80000	1353
4.80833	1353
4.81667	1354
4.82500	1354
4.83333	1354
4.84167	1352
4.85000	1349
4.85833	1346
4.86667	1342
4.87500	1337
4.88333	1332
4.89167	1327
4.90000	1322
4.90833	1317
4.91667	1313
4.92500	1311
4.93333	1309
4.94167	1308
4.95000	1308
4.95833	1307
4.96667	1306
4.97500	1305
4.98333	1305
4.99167	1306
5.00000	1308
5.00833	1310
5.01667	1312
5.02500	1314
5.03333	1315
5.04167	1316
5.05000	1318
5.05833	1318
5.06667	1319
5.07500	1319
5.08333	1318
5.09167	1316
5.10000	1315
5.10833	1314
5.11667	1314
5.12500	1315
5.13333	1316
5.14167	1317
5.15000	1318
5.15833	1319
5.16667	1320
5.17500	1321
5.18333	1322
5.19167	1324
5.20000	1326
5.20833	1329
5.21667	1335
5.22500	1344
5.23333	1356
5.24167	1373
5.25000	1397
5.25833	1431
5.26667	1482
5.27500	1555
5.28333	1661
5.29167	1813
5.30000	2021
5.30833	2312
5.31667	2704
5.32500	3228
5.33333	3928
5.34167	4819
5.35000	5984
5.35833	7422
5.36667	9194
5.37500	11347
5.38333	13814
5.39167	16712
5.40000	19857
5.40833	23276
5.41667	26865
5.42500	30381
5.43333	33862
5.44167	36954
5.45000	39621
5.45833	41710
5.46667	43035
5.47500	43614
5.48333	43371
5.49167	42277
5.50000	40502
5.50833	38044
5.51667	35063
5.52500	31793
5.53333	28225
5.54167	24707
5.55000	21232
5.55833	17968
5.56667	15057
5.57500	12335
5.58333	9912
5.59167	7971
5.60000	6543
5.60833	5469
5.61667	4639
5.62500	4035
5.63333	3586
5.64167	3252
5.65000	3025
5.65833	2884
5.66667	2792
5.67500	2724
5.68333	2665
5.69167	2603
5.70000	2533
5.70833	2455
5.71667	2376
5.72500	2294
5.73333	2208
5.74167	2122
5.75000	2038
5.75833	1957
5.76667	1886
5.77500	1818
5.78333	1755
5.79167	1703
5.80000	1662
5.80833	1630
5.81667	1604
5.82500	1583
5.83333	1567
5.84167	1554
5.85000	1545
5.85833	1538
5.86667	1532
5.87500	1528
5.88333	1525
5.89167	1523
5.90000	1523
5.90833	1524
5.91667	1526
5.92500	1529
5.93333	1532
5.94167	1537
5.95000	1542
5.95833	1548
5.96667	1555
5.97500	1563
5.98333	1571
5.99167	1581
6.00000	1592
6.00833	1606
6.01667	1624
6.02500	1645
6.03333	1672
6.04167	1706
6.05000	1748
6.05833	1801
6.06667	1868
6.07500	1950
6.08333	2045
6.09167	2156
6.10000	2277
6.10833	2406
6.11667	2538
6.12500	2660
6.13333	2774
6.14167	2865
6.15000	2927
6.15833	2958
6.16667	2954
6.17500	2915
6.18333	2849
6.19167	2757
6.20000	2653
6.20833	2545
6.21667	2436
6.22500	2336
6.23333	2244
6.24167	2165
6.25000	2098
6.25833	2041
6.26667	1996
6.27500	1960
6.28333	1931
6.29167	1907
6.30000	1888
6.30833	1871
6.31667	1857
6.32500	1847
6.33333	1840
6.34167	1835
6.35000	1832
6.35833	1830
6.36667	1829
6.37500	1827
6.38333	1826
6.39167	1825
6.40000	1824
6.40833	1822
6.41667	1818
6.42500	1814
6.43333	1810
6.44167	1807
6.45000	1808
6.45833	1811
6.46667	1817
6.47500	1824
6.48333	1832
6.49167	1840
6.50000	1849
6.50833	1858
6.51667	1868
6.52500	1878
6.53333	1889
6.54167	1903
6.55000	1923
6.55833	1958
6.56667	2018
6.57500	2126
6.58333	2327
6.59167	2678
6.60000	3285
6.60833	4306
6.61667	5894
6.62500	8322
6.63333	11845
6.64167	16506
6.65000	22674
6.65833	29956
6.66667	38049
6.67500	46701
6.68333	54503
6.69167	61141
6.70000	65657
6.70833	67271
6.71667	66121
6.72500	62332
6.73333	56082
6.74167	48685
6.75000	40533
6.75833	32470
6.76667	25285
6.77500	19005
6.78333	14039
6.79167	10224
6.80000	7440
6.80833	5523
6.81667	4233
6.82500	3412
6.83333	2905
6.84167	2604
6.85000	2433
6.85833	2341
6.86667	2295
6.87500	2275
6.88333	2268
6.89167	2266
6.90000	2266
6.90833	2265
6.91667	2263
6.92500	2262
6.93333	2264
6.94167	2272
6.95000	2292
6.95833	2330
6.96667	2395
6.97500	2496
6.98333	2643
6.99167	2849
7.00000	3103
7.00833	3408
7.01667	3742
7.02500	4056
7.03333	4337
7.04167	4529
7.05000	4605
7.05833	4568
7.06667	4416
7.07500	4169
7.08333	3879
7.09167	3562
7.10000	3261
7.10833	2999
7.11667	2781
7.12500	2622
7.13333	2512
7.14167	2444
7.15000	2409
7.15833	2393
7.16667	2386
7.17500	2380
7.18333	2371
7.19167	2357
7.20000	2339
7.20833	2319
7.21667	2299
7.22500	2279
7.23333	2261
7.24167	2246
7.25000	2235
7.25833	2228
7.26667	2229
7.27500	2236
7.28333	2251
7.29167	2273
7.30000	2300
7.30833	2334
7.31667	2374
7.32500	2421
7.33333	2477
7.34167	2540
7.35000	2612
7.35833	2693
7.36667	2783
7.37500	2883
7.38333	2991
7.39167	3110
7.40000	3235
7.40833	3367
7.41667	3506
7.42500	3646
7.43333	3792
7.44167	3931
7.45000	4064
7.45833	4186
7.46667	4286
7.47500	4364
7.48333	4412
7.49167	4426
7.50000	4408
7.50833	4355
7.51667	4273
7.52500	4169
7.53333	4047
7.54167	3923
7.55000	3802
7.55833	3694
7.56667	3609
7.57500	3550
7.58333	3521
7.59167	3525
7.60000	3552
7.60833	3598
7.61667	3650
7.62500	3690
7.63333	3709
7.64167	3695
7.65000	3637
7.65833	3540
7.66667	3408
7.67500	3245
7.68333	3074
7.69167	2899
7.70000	2736
7.70833	2596
7.71667	2478
7.72500	2390
7.73333	2327
7.74167	2286
7.75000	2266
7.75833	2263
7.76667	2273
7.77500	2295
7.78333	2324
7.79167	2360
7.80000	2396
7.80833	2432
7.81667	2466
7.82500	2497
7.83333	2527
7.84167	2555
7.85000	2582
7.85833	2607
7.86667	2632
7.87500	2656
7.88333	2675
7.89167	2690
7.90000	2697
7.90833	2694
7.91667	2681
7.92500	2659
7.93333	2629
7.94167	2598
7.95000	2565
7.95833	2534
7.96667	2505
7.97500	2479
7.98333	2455
7.99167	2432
8.00000	2410

[LC Chromatogram(Detector A-Ch2)]
Interval(msec)	500
# of Points	961
Start Time(min)	0.000
End Time(min)	8.000
Intensity Units	mAU
Intensity Multiplier	0.001
Wavelength(nm)	220nm
R.Time (min)	Intensity
0.00000	-145
0.00833	-145
0.01667	-87
0.02500	9
0.03333	16
0.04167	16
0.05000	7
0.05833	-13
0.06667	-38
0.07500	-55
0.08333	-58
0.09167	-50
0.10000	-33
0.10833	-14
0.11667	4
0.12500	18
0.13333	31
0.14167	45
0.15000	56
0.15833	61
0.16667	59
0.17500	52
0.18333	41
0.19167	33
0.20000	33
0.20833	37
0.21667	41
0.22500	42
0.23333	41
0.24167	38
0.25000	33
0.25833	26
0.26667	17
0.27500	9
0.28333	5
0.29167	7
0.30000	23
0.30833	47
0.31667	75
0.32500	103
0.33333	127
0.34167	145
0.35000	161
0.35833	178
0.36667	198
0.37500	221
0.38333	240
0.39167	202
0.40000	63
0.40833	-122
0.41667	-237
0.42500	-229
0.43333	-68
0.44167	235
0.45000	547
0.45833	749
0.46667	834
0.47500	837
0.48333	779
0.49167	704
0.50000	664
0.50833	675
0.51667	724
0.52500	798
0.53333	862
0.54167	888
0.55000	926
0.55833	1056
0.56667	1186
0.57500	1015
0.58333	373
0.59167	-803
0.60000	-2632
0.60833	-4716
0.61667	-6371
0.62500	-7402
0.63333	-7663
0.64167	-7115
0.65000	-6102
0.65833	-4941
0.66667	-3770
0.67500	-2760
0.68333	-1919
0.69167	-1273
0.70000	-812
0.70833	-495
0.71667	-289
0.72500	-158
0.73333	-74
0.74167	-17
0.75000	26
0.75833	60
0.76667	90
0.77500	114
0.78333	131
0.79167	139
0.80000	133
0.80833	120
0.81667	105
0.82500	92
0.83333	85
0.84167	88
0.85000	97
0.85833	108
0.86667	120
0.87500	126
0.88333	127
0.89167	121
0.90000	113
0.90833	104
0.91667	101
0.92500	106
0.93333	114
0.94167	125
0.95000	133
0.95833	132
0.96667	122
0.97500	110
0.98333	97
0.99167	91
1.00000	94
1.00833	106
1.01667	123
1.02500	144
1.03333	166
1.04167	189
1.05000	209
1.05833	227
1.06667	239
1.07500	243
1.08333	237
1.09167	232
1.10000	236
1.10833	246
1.11667	256
1.12500	262
1.13333	262
1.14167	254
1.15000	245
1.15833	245
1.16667	253
1.17500	265
1.18333	277
1.19167	289
1.20000	301
1.20833	312
1.21667	317
1.22500	315
1.23333	301
1.24167	274
1.25000	238
1.25833	200
1.26667	162
1.27500	128
1.28333	97
1.29167	66
1.30000	29
1.30833	-16
1.31667	-76
1.32500	-154
1.33333	-246
1.34167	-358
1.35000	-480
1.35833	-607
1.36667	-740
1.37500	-873
1.38333	-1014
1.39167	-1159
1.40000	-1314
1.40833	-1478
1.41667	-1647
1.42500	-1826
1.43333	-2008
1.44167	-2202
1.45000	-2405
1.45833	-2621
1.46667	-2852
1.47500	-3087
1.48333	-3333
1.49167	-3578
1.50000	-3827
1.50833	-4081
1.51667	-4337
1.52500	-4605
1.53333	-4869
1.54167	-5139
1.55000	-5410
1.55833	-5688
1.56667	-5984
1.57500	-6292
1.58333	-6630
1.59167	-6975
1.60000	-7328
1.60833	-7684
1.61667	-8031
1.62500	-8381
1.63333	-8721
1.64167	-9064
1.65000	-9404
1.65833	-9743
1.66667	-10090
1.67500	-10433
1.68333	-10788
1.69167	-11135
1.70000	-11474
1.70833	-11805
1.71667	-12121
1.72500	-12438
1.73333	-12753
1.74167	-13085
1.75000	-13427
1.75833	-13783
1.76667	-14158
1.77500	-14534
1.78333	-14926
1.79167	-15311
1.80000	-15695
1.80833	-16076
1.81667	-16447
1.82500	-16826
1.83333	-17208
1.84167	-17616
1.85000	-18041
1.85833	-18489
1.86667	-18964
1.87500	-19443
1.88333	-19946
1.89167	-20445
1.90000	-20947
1.90833	-21450
1.91667	-21938
1.92500	-22429
1.93333	-22901
1.94167	-23371
1.95000	-23829
1.95833	-24273
1.96667	-24715
1.97500	-25141
1.98333	-25572
1.99167	-26008
2.00000	-26472
2.00833	-26971
2.01667	-27501
2.02500	-28082
2.03333	-28678
2.04167	-29307
2.05000	-29937
2.05833	-30550
2.06667	-31147
2.07500	-31684
2.08333	-32174
2.09167	-32604
2.10000	-32983
2.10833	-33342
2.11667	-33716
2.12500	-34139
2.13333	-34604
2.14167	-35137
2.15000	-35693
2.15833	-36234
2.16667	-36757
2.17500	-37222
2.18333	-37642
2.19167	-37993
2.20000	-38265
2.20833	-38431
2.21667	-38425
2.22500	-38193
2.23333	-37601
2.24167	-36502
2.25000	-34792
2.25833	-32237
2.26667	-28725
2.27500	-24216
2.28333	-18414
2.29167	-11539
2.30000	-3290
2.30833	6173
2.31667	16616
2.32500	28263
2.33333	40160
2.34167	52298
2.35000	61735
2.35833	65051
2.36667	61607
2.37500	51104
2.38333	33625
2.39167	14495
2.40000	-3048
2.40833	-17618
2.41667	-27845
2.42500	-34294
2.43333	-38072
2.44167	-40132
2.45000	-41101
2.45833	-41319
2.46667	-40949
2.47500	-39960
2.48333	-38259
2.49167	-35832
2.50000	-32468
2.50833	-28207
2.51667	-23070
2.52500	-16920
2.53333	-10196
2.54167	-2701
2.55000	5175
2.55833	13308
2.56667	21733
2.57500	29960
2.58333	38180
2.59167	45430
2.60000	51189
2.60833	53928
2.61667	50737
2.62500	41109
2.63333	27244
2.64167	9823
2.65000	-7498
2.65833	-21356
2.66667	-31510
2.67500	-38225
2.68333	-42335
2.69167	-44718
2.70000	-46034
2.70833	-46721
2.71667	-47035
2.72500	-47128
2.73333	-47089
2.74167	-46958
2.75000	-46793
2.75833	-46636
2.76667	-46516
2.77500	-46479
2.78333	-46540
2.79167	-46677
2.80000	-46877
2.80833	-47108
2.81667	-47324
2.82500	-47518
2.83333	-47682
2.84167	-47821
2.85000	-47942
2.85833	-48050
2.86667	-48149
2.87500	-48231
2.88333	-48297
2.89167	-48351
2.90000	-48396
2.90833	-48434
2.91667	-48461
2.92500	-48473
2.93333	-48468
2.94167	-48440
2.95000	-48400
2.95833	-48351
2.96667	-48300
2.97500	-48254
2.98333	-48216
2.99167	-48192
3.00000	-48188
3.00833	-48207
3.01667	-48244
3.02500	-48292
3.03333	-48342
3.04167	-48392
3.05000	-48444
3.05833	-48496
3.06667	-48546
3.07500	-48593
3.08333	-48640
3.09167	-48683
3.10000	-48719
3.10833	-48748
3.11667	-48769
3.12500	-48782
3.13333	-48788
3.14167	-48791
3.15000	-48787
3.15833	-48770
3.16667	-48738
3.17500	-48689
3.18333	-48618
3.19167	-48521
3.20000	-48387
3.20833	-48214
3.21667	-48000
3.22500	-47742
3.23333	-47478
3.24167	-47221
3.25000	-47008
3.25833	-46882
3.26667	-46850
3.27500	-46922
3.28333	-47100
3.29167	-47337
3.30000	-47608
3.30833	-47886
3.31667	-48134
3.32500	-48349
3.33333	-48519
3.34167	-48646
3.35000	-48739
3.35833	-48804
3.36667	-48851
3.37500	-48888
3.38333	-48920
3.39167	-48947
3.40000	-48965
3.40833	-48975
3.41667	-48983
3.42500	-48990
3.43333	-48996
3.44167	-49002
3.45000	-49005
3.45833	-49003
3.46667	-48999
3.47500	-48998
3.48333	-49002
3.49167	-49003
3.50000	-48994
3.50833	-48961
3.51667	-48885
3.52500	-48748
3.53333	-48521
3.54167	-48160
3.55000	-47599
3.55833	-46717
3.56667	-45361
3.57500	-43253
3.58333	-40047
3.59167	-35409
3.60000	-28667
3.60833	-19633
3.61667	-8022
3.62500	6544
3.63333	22563
3.64167	40045
3.65000	56872
3.65833	70860
3.66667	81258
3.67500	85860
3.68333	84045
3.69167	76831
3.70000	64438
3.70833	48595
3.71667	31826
3.72500	14688
3.73333	-601
3.74167	-13658
3.75000	-24229
3.75833	-32148
3.76667	-37969
3.77500	-41981
3.78333	-44668
3.79167	-46410
3.80000	-47503
3.80833	-48179
3.81667	-48580
3.82500	-48811
3.83333	-48938
3.84167	-49000
3.85000	-49026
3.85833	-49035
3.86667	-49034
3.87500	-49024
3.88333	-49003
3.89167	-48971
3.90000	-48926
3.90833	-48870
3.91667	-48808
3.92500	-48741
3.93333	-48674
3.94167	-48606
3.95000	-48547
3.95833	-48503
3.96667	-48478
3.97500	-48479
3.98333	-48509
3.99167	-48557
4.00000	-48616
4.00833	-48681
4.01667	-48746
4.02500	-48811
4.03333	-48868
4.04167	-48916
4.05000	-48956
4.05833	-48988
4.06667	-49015
4.07500	-49041
4.08333	-49067
4.09167	-49090
4.10000	-49108
4.10833	-49122
4.11667	-49130
4.12500	-49133
4.13333	-49136
4.14167	-49141
4.15000	-49149
4.15833	-49163
4.16667	-49180
4.17500	-49195
4.18333	-49206
4.19167	-49216
4.20000	-49227
4.20833	-49240
4.21667	-49259
4.22500	-49283
4.23333	-49308
4.24167	-49330
4.25000	-49348
4.25833	-49361
4.26667	-49371
4.27500	-49378
4.28333	-49381
4.29167	-49382
4.30000	-49379
4.30833	-49373
4.31667	-49365
4.32500	-49356
4.33333	-49347
4.34167	-49341
4.35000	-49336
4.35833	-49328
4.36667	-49317
4.37500	-49304
4.38333	-49291
4.39167	-49280
4.40000	-49272
4.40833	-49266
4.41667	-49255
4.42500	-49238
4.43333	-49220
4.44167	-49202
4.45000	-49189
4.45833	-49182
4.46667	-49182
4.47500	-49188
4.48333	-49198
4.49167	-49211
4.50000	-49228
4.50833	-49246
4.51667	-49260
4.52500	-49269
4.53333	-49275
4.54167	-49280
4.55000	-49289
4.55833	-49305
4.56667	-49327
4.57500	-49351
4.58333	-49376
4.59167	-49398
4.60000	-49417
4.60833	-49429
4.61667	-49432
4.62500	-49427
4.63333	-49420
4.64167	-49415
4.65000	-49415
4.65833	-49423
4.66667	-49436
4.67500	-49445
4.68333	-49445
4.69167	-49438
4.70000	-49430
4.70833	-49421
4.71667	-49416
4.72500	-49415
4.73333	-49417
4.74167	-49418
4.75000	-49419
4.75833	-49419
4.76667	-49420
4.77500	-49419
4.78333	-49413
4.79167	-49407
4.80000	-49401
4.80833	-49397
4.81667	-49396
4.82500	-49398
4.83333	-49401
4.84167	-49402
4.85000	-49403
4.85833	-49409
4.86667	-49420
4.87500	-49436
4.88333	-49457
4.89167	-49479
4.90000	-49498
4.90833	-49514
4.91667	-49521
4.92500	-49518
4.93333	-49513
4.94167	-49507
4.95000	-49504
4.95833	-49506
4.96667	-49513
4.97500	-49521
4.98333	-49530
4.99167	-49539
5.00000	-49551
5.00833	-49564
5.01667	-49572
5.02500	-49574
5.03333	-49570
5.04167	-49562
5.05000	-49555
5.05833	-49553
5.06667	-49558
5.07500	-49568
5.08333	-49583
5.09167	-49598
5.10000	-49612
5.10833	-49624
5.11667	-49634
5.12500	-49643
5.13333	-49651
5.14167	-49659
5.15000	-49668
5.15833	-49675
5.16667	-49683
5.17500	-49692
5.18333	-49704
5.19167	-49719
5.20000	-49742
5.20833	-49768
5.21667	-49790
5.22500	-49802
5.23333	-49792
5.24167	-49746
5.25000	-49652
5.25833	-49489
5.26667	-49234
5.27500	-48851
5.28333	-48284
5.29167	-47476
5.30000	-46306
5.30833	-44689
5.31667	-42469
5.32500	-39443
5.33333	-35492
5.34167	-30214
5.35000	-23534
5.35833	-15051
5.36667	-4475
5.37500	8038
5.38333	23191
5.39167	40178
5.40000	59357
5.40833	80229
5.41667	101643
5.42500	123915
5.43333	144900
5.44167	164528
5.45000	181576
5.45833	194752
5.46667	204042
5.47500	208359
5.48333	207529
5.49167	202009
5.50000	191539
5.50833	176984
5.51667	159430
5.52500	138866
5.53333	117468
5.54167	95192
5.55000	73354
5.55833	52924
5.56667	33798
5.57500	17479
5.58333	2947
5.59167	-10420
5.60000	-21476
5.60833	-29716
5.61667	-35702
5.62500	-40355
5.63333	-44023
5.64167	-46703
5.65000	-48510
5.65833	-49739
5.66667	-50620
5.67500	-51252
5.68333	-51730
5.69167	-52101
5.70000	-52404
5.70833	-52693
5.71667	-52969
5.72500	-53217
5.73333	-53434
5.74167	-53635
5.75000	-53825
5.75833	-54003
5.76667	-54183
5.77500	-54365
5.78333	-54538
5.79167	-54694
5.80000	-54840
5.80833	-54980
5.81667	-55114
5.82500	-55248
5.83333	-55375
5.84167	-55501
5.85000	-55625
5.85833	-55744
5.86667	-55863
5.87500	-55977
5.88333	-56091
5.89167	-56203
5.90000	-56314
5.90833	-56427
5.91667	-56542
5.92500	-56666
5.93333	-56792
5.94167	-56923
5.95000	-57054
5.95833	-57181
5.96667	-57306
5.97500	-57425
5.98333	-57542
5.99167	-57656
6.00000	-57770
6.00833	-57886
6.01667	-58001
6.02500	-58120
6.03333	-58236
6.04167	-58353
6.05000	-58467
6.05833	-58575
6.06667	-58680
6.07500	-58779
6.08333	-58875
6.09167	-58969
6.10000	-59060
6.10833	-59153
6.11667	-59245
6.12500	-59339
6.13333	-59428
6.14167	-59515
6.15000	-59600
6.15833	-59687
6.16667	-59782
6.17500	-59884
6.18333	-60001
6.19167	-60124
6.20000	-60251
6.20833	-60382
6.21667	-60512
6.22500	-60646
6.23333	-60780
6.24167	-60919
6.25000	-61060
6.25833	-61203
6.26667	-61349
6.27500	-61490
6.28333	-61629
6.29167	-61765
6.30000	-61906
6.30833	-62055
6.31667	-62210
6.32500	-62377
6.33333	-62541
6.34167	-62704
6.35000	-62861
6.35833	-63012
6.36667	-63161
6.37500	-63306
6.38333	-63455
6.39167	-63603
6.40000	-63753
6.40833	-63904
6.41667	-64050
6.42500	-64196
6.43333	-64341
6.44167	-64493
6.45000	-64647
6.45833	-64801
6.46667	-64956
6.47500	-65104
6.48333	-65251
6.49167	-65394
6.50000	-65540
6.50833	-65690
6.51667	-65842
6.52500	-66003
6.53333	-66160
6.54167	-66313
6.55000	-66448
6.55833	-66544
6.56667	-66576
6.57500	-66474
6.58333	-66164
6.59167	-65447
6.60000	-64052
6.60833	-61650
6.61667	-57620
6.62500	-51376
6.63333	-42411
6.64167	-29657
6.65000	-13450
6.65833	6327
6.66667	29387
6.67500	52712
6.68333	75916
6.69167	95492
6.70000	108934
6.70833	115575
6.71667	113820
6.72500	103704
6.73333	87821
6.74167	66836
6.75000	43640
6.75833	20920
6.76667	-706
6.77500	-18980
6.78333	-34033
6.79167	-45705
6.80000	-54232
6.80833	-60337
6.81667	-64458
6.82500	-67191
6.83333	-68946
6.84167	-70053
6.85000	-70754
6.85833	-71204
6.86667	-71512
6.87500	-71732
6.88333	-71906
6.89167	-72050
6.90000	-72174
6.90833	-72287
6.91667	-72395
6.92500	-72501
6.93333	-72594
6.94167	-72668
6.95000	-72715
6.95833	-72723
6.96667	-72684
6.97500	-72579
6.98333	-72389
6.99167	-72111
7.00000	-71719
7.00833	-71235
7.01667	-70706
7.02500	-70147
7.03333	-69671
7.04167	-69329
7.05000	-69163
7.05833	-69231
7.06667	-69520
7.07500	-69964
7.08333	-70544
7.09167	-71154
7.10000	-71734
7.10833	-72252
7.11667	-72655
7.12500	-72952
7.13333	-73153
7.14167	-73275
7.15000	-73343
7.15833	-73379
7.16667	-73400
7.17500	-73422
7.18333	-73455
7.19167	-73498
7.20000	-73550
7.20833	-73609
7.21667	-73666
7.22500	-73721
7.23333	-73772
7.24167	-73819
7.25000	-73861
7.25833	-73894
7.26667	-73919
7.27500	-73932
7.28333	-73931
7.29167	-73917
7.30000	-73890
7.30833	-73852
7.31667	-73810
7.32500	-73763
7.33333	-73707
7.34167	-73636
7.35000	-73552
7.35833	-73457
7.36667	-73352
7.37500	-73250
7.38333	-73150
7.39167	-73048
7.40000	-72935
7.40833	-72808
7.41667	-72668
7.42500	-72511
7.43333	-72353
7.44167	-72196
7.45000	-72050
7.45833	-71930
7.46667	-71836
7.47500	-71778
7.48333	-71758
7.49167	-71771
7.50000	-71816
7.50833	-71887
7.51667	-71980
7.52500	-72095
7.53333	-72221
7.54167	-72355
7.55000	-72484
7.55833	-72594
7.56667	-72682
7.57500	-72741
7.58333	-72772
7.59167	-72775
7.60000	-72747
7.60833	-72698
7.61667	-72639
7.62500	-72579
7.63333	-72541
7.64167	-72543
7.65000	-72587
7.65833	-72681
7.66667	-72820
7.67500	-72985
7.68333	-73177
7.69167	-73370
7.70000	-73553
7.70833	-73719
7.71667	-73854
7.72500	-73957
7.73333	-74015
7.74167	-74018
7.75000	-73973
7.75833	-73879
7.76667	-73741
7.77500	-73575
7.78333	-73380
7.79167	-73176
7.80000	-72967
7.80833	-72768
7.81667	-72607
7.82500	-72487
7.83333	-72418
7.84167	-72406
7.85000	-72438
7.85833	-72506
7.86667	-72604
7.87500	-72713
7.88333	-72832
7.89167	-72953
7.90000	-73078
7.90833	-73205
7.91667	-73330
7.92500	-73457
7.93333	-73579
7.94167	-73698
7.95000	-73813
7.95833	-73920
7.96667	-74023
7.97500	-74111
7.98333	-74185
7.99167	-74244
8.00000	-74286

[Header]
Application Name	LabSolutions
Version	5.98SP1
Data File Name	C:\LabSolutions\Data\spiroindane_pyrrolidines\level5_03302021_1.lcd
Output Date	4/9/2021
Output Time	4:34:33 PM

[Configuration]
Instrument Name	MDCM-420DJB2-Instrument1
Instrument #	1
Line #	1
# of Detectors	1
Detector ID	Detector A
Detector Name	Detector A
# of Channels	2

[LC Chromatogram(Detector A-Ch1)]
Interval(msec)	500
# of Points	961
Start Time(min)	0.000
End Time(min)	8.000
Intensity Units	mAU
Intensity Multiplier	0.001
Wavelength(nm)	254nm
R.Time (min)	Intensity
0.00000	-8
0.00833	-8
0.01667	-2
0.02500	-1
0.03333	-1
0.04167	-1
0.05000	-0
0.05833	1
0.06667	2
0.07500	2
0.08333	1
0.09167	-1
0.10000	-1
0.10833	-1
0.11667	-0
0.12500	1
0.13333	1
0.14167	1
0.15000	1
0.15833	1
0.16667	1
0.17500	1
0.18333	2
0.19167	3
0.20000	5
0.20833	5
0.21667	6
0.22500	6
0.23333	5
0.24167	5
0.25000	5
0.25833	4
0.26667	3
0.27500	3
0.28333	4
0.29167	5
0.30000	7
0.30833	7
0.31667	7
0.32500	5
0.33333	4
0.34167	3
0.35000	2
0.35833	3
0.36667	6
0.37500	10
0.38333	14
0.39167	18
0.40000	22
0.40833	25
0.41667	28
0.42500	31
0.43333	35
0.44167	41
0.45000	46
0.45833	50
0.46667	53
0.47500	54
0.48333	54
0.49167	53
0.50000	55
0.50833	59
0.51667	65
0.52500	74
0.53333	82
0.54167	95
0.55000	137
0.55833	229
0.56667	387
0.57500	639
0.58333	946
0.59167	1191
0.60000	1331
0.60833	1344
0.61667	1216
0.62500	1008
0.63333	808
0.64167	639
0.65000	505
0.65833	396
0.66667	308
0.67500	239
0.68333	182
0.69167	139
0.70000	105
0.70833	81
0.71667	64
0.72500	53
0.73333	46
0.74167	42
0.75000	39
0.75833	38
0.76667	37
0.77500	36
0.78333	36
0.79167	35
0.80000	34
0.80833	33
0.81667	32
0.82500	31
0.83333	30
0.84167	29
0.85000	29
0.85833	28
0.86667	27
0.87500	26
0.88333	26
0.89167	26
0.90000	27
0.90833	28
0.91667	28
0.92500	28
0.93333	27
0.94167	26
0.95000	26
0.95833	26
0.96667	27
0.97500	27
0.98333	27
0.99167	27
1.00000	26
1.00833	27
1.01667	28
1.02500	28
1.03333	27
1.04167	28
1.05000	29
1.05833	30
1.06667	31
1.07500	31
1.08333	30
1.09167	29
1.10000	30
1.10833	31
1.11667	33
1.12500	34
1.13333	36
1.14167	36
1.15000	36
1.15833	35
1.16667	35
1.17500	34
1.18333	34
1.19167	35
1.20000	35
1.20833	36
1.21667	36
1.22500	36
1.23333	37
1.24167	37
1.25000	37
1.25833	36
1.26667	33
1.27500	31
1.28333	29
1.29167	27
1.30000	26
1.30833	27
1.31667	27
1.32500	28
1.33333	29
1.34167	31
1.35000	34
1.35833	37
1.36667	41
1.37500	45
1.38333	50
1.39167	54
1.40000	57
1.40833	60
1.41667	64
1.42500	69
1.43333	74
1.44167	79
1.45000	84
1.45833	89
1.46667	95
1.47500	101
1.48333	108
1.49167	115
1.50000	121
1.50833	128
1.51667	134
1.52500	140
1.53333	146
1.54167	153
1.55000	161
1.55833	170
1.56667	178
1.57500	188
1.58333	198
1.59167	210
1.60000	224
1.60833	239
1.61667	254
1.62500	269
1.63333	285
1.64167	301
1.65000	318
1.65833	335
1.66667	353
1.67500	372
1.68333	394
1.69167	416
1.70000	439
1.70833	464
1.71667	490
1.72500	517
1.73333	544
1.74167	574
1.75000	604
1.75833	636
1.76667	671
1.77500	709
1.78333	750
1.79167	794
1.80000	841
1.80833	890
1.81667	940
1.82500	991
1.83333	1039
1.84167	1086
1.85000	1126
1.85833	1159
1.86667	1184
1.87500	1200
1.88333	1209
1.89167	1216
1.90000	1227
1.90833	1245
1.91667	1276
1.92500	1318
1.93333	1368
1.94167	1431
1.95000	1521
1.95833	1652
1.96667	1809
1.97500	1976
1.98333	2133
1.99167	2230
2.00000	2251
2.00833	2212
2.01667	2128
2.02500	2024
2.03333	1932
2.04167	1861
2.05000	1817
2.05833	1801
2.06667	1809
2.07500	1841
2.08333	1894
2.09167	1963
2.10000	2049
2.10833	2132
2.11667	2204
2.12500	2255
2.13333	2275
2.14167	2262
2.15000	2229
2.15833	2180
2.16667	2134
2.17500	2108
2.18333	2114
2.19167	2173
2.20000	2300
2.20833	2502
2.21667	2804
2.22500	3212
2.23333	3743
2.24167	4422
2.25000	5225
2.25833	6196
2.26667	7293
2.27500	8517
2.28333	9869
2.29167	11263
2.30000	12741
2.30833	14220
2.31667	15721
2.32500	17243
2.33333	18768
2.34167	20358
2.35000	21945
2.35833	23582
2.36667	25109
2.37500	26361
2.38333	27091
2.39167	26615
2.40000	24653
2.40833	21688
2.41667	17950
2.42500	14032
2.43333	10794
2.44167	8341
2.45000	6613
2.45833	5434
2.46667	4683
2.47500	4298
2.48333	4203
2.49167	4361
2.50000	4754
2.50833	5313
2.51667	6029
2.52500	6858
2.53333	7750
2.54167	8717
2.55000	9690
2.55833	10691
2.56667	11685
2.57500	12664
2.58333	13646
2.59167	14591
2.60000	15541
2.60833	16454
2.61667	17345
2.62500	18208
2.63333	19011
2.64167	19764
2.65000	20369
2.65833	20784
2.66667	20842
2.67500	20309
2.68333	19140
2.69167	17342
2.70000	14880
2.70833	12245
2.71667	9687
2.72500	7399
2.73333	5648
2.74167	4389
2.75000	3545
2.75833	3004
2.76667	2666
2.77500	2457
2.78333	2327
2.79167	2248
2.80000	2200
2.80833	2172
2.81667	2153
2.82500	2137
2.83333	2112
2.84167	2075
2.85000	2027
2.85833	1967
2.86667	1904
2.87500	1844
2.88333	1791
2.89167	1750
2.90000	1720
2.90833	1702
2.91667	1697
2.92500	1704
2.93333	1725
2.94167	1759
2.95000	1803
2.95833	1854
2.96667	1907
2.97500	1954
2.98333	1991
2.99167	2014
3.00000	2019
3.00833	2010
3.01667	1987
3.02500	1955
3.03333	1921
3.04167	1890
3.05000	1870
3.05833	1868
3.06667	1886
3.07500	1926
3.08333	1983
3.09167	2043
3.10000	2099
3.10833	2141
3.11667	2160
3.12500	2156
3.13333	2134
3.14167	2097
3.15000	2054
3.15833	2008
3.16667	1965
3.17500	1925
3.18333	1891
3.19167	1863
3.20000	1840
3.20833	1824
3.21667	1814
3.22500	1808
3.23333	1806
3.24167	1804
3.25000	1798
3.25833	1788
3.26667	1774
3.27500	1756
3.28333	1735
3.29167	1714
3.30000	1694
3.30833	1677
3.31667	1666
3.32500	1661
3.33333	1662
3.34167	1670
3.35000	1680
3.35833	1691
3.36667	1703
3.37500	1715
3.38333	1726
3.39167	1738
3.40000	1751
3.40833	1766
3.41667	1782
3.42500	1802
3.43333	1826
3.44167	1855
3.45000	1888
3.45833	1926
3.46667	1976
3.47500	2039
3.48333	2124
3.49167	2262
3.50000	2498
3.50833	2929
3.51667	3633
3.52500	4767
3.53333	6657
3.54167	9737
3.55000	14858
3.55833	23145
3.56667	35941
3.57500	55702
3.58333	84427
3.59167	124597
3.60000	180125
3.60833	249265
3.61667	335066
3.62500	433106
3.63333	534440
3.64167	637221
3.65000	723424
3.65833	786206
3.66667	819131
3.67500	813308
3.68333	771386
3.69167	702099
3.70000	607524
3.70833	504859
3.71667	402364
3.72500	306061
3.73333	225466
3.74167	159242
3.75000	109054
3.75833	72659
3.76667	47144
3.77500	30243
3.78333	19269
3.79167	12430
3.80000	8262
3.80833	5773
3.81667	4315
3.82500	3465
3.83333	2976
3.84167	2693
3.85000	2531
3.85833	2439
3.86667	2387
3.87500	2357
3.88333	2337
3.89167	2319
3.90000	2299
3.90833	2275
3.91667	2247
3.92500	2214
3.93333	2178
3.94167	2140
3.95000	2101
3.95833	2062
3.96667	2025
3.97500	1990
3.98333	1957
3.99167	1928
4.00000	1902
4.00833	1881
4.01667	1863
4.02500	1850
4.03333	1840
4.04167	1835
4.05000	1833
4.05833	1835
4.06667	1839
4.07500	1842
4.08333	1843
4.09167	1841
4.10000	1835
4.10833	1828
4.11667	1818
4.12500	1806
4.13333	1793
4.14167	1776
4.15000	1758
4.15833	1737
4.16667	1716
4.17500	1697
4.18333	1679
4.19167	1663
4.20000	1648
4.20833	1635
4.21667	1624
4.22500	1613
4.23333	1603
4.24167	1595
4.25000	1589
4.25833	1585
4.26667	1583
4.27500	1583
4.28333	1584
4.29167	1586
4.30000	1590
4.30833	1594
4.31667	1599
4.32500	1604
4.33333	1609
4.34167	1614
4.35000	1619
4.35833	1623
4.36667	1629
4.37500	1636
4.38333	1644
4.39167	1652
4.40000	1661
4.40833	1671
4.41667	1681
4.42500	1691
4.43333	1701
4.44167	1709
4.45000	1716
4.45833	1721
4.46667	1724
4.47500	1725
4.48333	1723
4.49167	1718
4.50000	1710
4.50833	1698
4.51667	1684
4.52500	1667
4.53333	1651
4.54167	1634
4.55000	1619
4.55833	1605
4.56667	1591
4.57500	1580
4.58333	1570
4.59167	1561
4.60000	1554
4.60833	1549
4.61667	1545
4.62500	1543
4.63333	1542
4.64167	1541
4.65000	1541
4.65833	1541
4.66667	1541
4.67500	1542
4.68333	1544
4.69167	1546
4.70000	1548
4.70833	1551
4.71667	1555
4.72500	1560
4.73333	1566
4.74167	1573
4.75000	1580
4.75833	1587
4.76667	1594
4.77500	1599
4.78333	1603
4.79167	1605
4.80000	1603
4.80833	1599
4.81667	1593
4.82500	1587
4.83333	1580
4.84167	1574
4.85000	1566
4.85833	1557
4.86667	1546
4.87500	1535
4.88333	1524
4.89167	1514
4.90000	1505
4.90833	1498
4.91667	1492
4.92500	1487
4.93333	1485
4.94167	1483
4.95000	1482
4.95833	1483
4.96667	1484
4.97500	1485
4.98333	1486
4.99167	1487
5.00000	1487
5.00833	1487
5.01667	1488
5.02500	1490
5.03333	1492
5.04167	1494
5.05000	1495
5.05833	1496
5.06667	1496
5.07500	1496
5.08333	1496
5.09167	1497
5.10000	1498
5.10833	1498
5.11667	1500
5.12500	1501
5.13333	1504
5.14167	1507
5.15000	1510
5.15833	1514
5.16667	1519
5.17500	1526
5.18333	1535
5.19167	1549
5.20000	1570
5.20833	1601
5.21667	1647
5.22500	1712
5.23333	1805
5.24167	1940
5.25000	2131
5.25833	2405
5.26667	2785
5.27500	3319
5.28333	4054
5.29167	5047
5.30000	6405
5.30833	8172
5.31667	10519
5.32500	13511
5.33333	17247
5.34167	21931
5.35000	27409
5.35833	33973
5.36667	41348
5.37500	49466
5.38333	58325
5.39167	67211
5.40000	76285
5.40833	84745
5.41667	92312
5.42500	98746
5.43333	103385
5.44167	106252
5.45000	107095
5.45833	105756
5.46667	102545
5.47500	97526
5.48333	90893
5.49167	83346
5.50000	74810
5.50833	66087
5.51667	57356
5.52500	48850
5.53333	41114
5.54167	33962
5.55000	27812
5.55833	22537
5.56667	18142
5.57500	14649
5.58333	11856
5.59167	9755
5.60000	8182
5.60833	7044
5.61667	6247
5.62500	5689
5.63333	5306
5.64167	5034
5.65000	4828
5.65833	4650
5.66667	4481
5.67500	4305
5.68333	4113
5.69167	3914
5.70000	3699
5.70833	3482
5.71667	3266
5.72500	3055
5.73333	2860
5.74167	2676
5.75000	2515
5.75833	2372
5.76667	2248
5.77500	2144
5.78333	2055
5.79167	1982
5.80000	1921
5.80833	1871
5.81667	1831
5.82500	1798
5.83333	1772
5.84167	1753
5.85000	1739
5.85833	1731
5.86667	1726
5.87500	1724
5.88333	1724
5.89167	1724
5.90000	1725
5.90833	1726
5.91667	1727
5.92500	1729
5.93333	1733
5.94167	1738
5.95000	1745
5.95833	1754
5.96667	1765
5.97500	1779
5.98333	1795
5.99167	1815
6.00000	1838
6.00833	1865
6.01667	1897
6.02500	1934
6.03333	1979
6.04167	2033
6.05000	2095
6.05833	2172
6.06667	2268
6.07500	2380
6.08333	2498
6.09167	2619
6.10000	2750
6.10833	2880
6.11667	3006
6.12500	3127
6.13333	3229
6.14167	3298
6.15000	3332
6.15833	3334
6.16667	3308
6.17500	3257
6.18333	3179
6.19167	3084
6.20000	2986
6.20833	2895
6.21667	2807
6.22500	2721
6.23333	2643
6.24167	2570
6.25000	2504
6.25833	2446
6.26667	2394
6.27500	2349
6.28333	2309
6.29167	2276
6.30000	2249
6.30833	2227
6.31667	2211
6.32500	2200
6.33333	2192
6.34167	2187
6.35000	2183
6.35833	2178
6.36667	2172
6.37500	2163
6.38333	2150
6.39167	2137
6.40000	2123
6.40833	2109
6.41667	2097
6.42500	2086
6.43333	2077
6.44167	2071
6.45000	2068
6.45833	2070
6.46667	2076
6.47500	2086
6.48333	2098
6.49167	2110
6.50000	2124
6.50833	2138
6.51667	2153
6.52500	2172
6.53333	2197
6.54167	2234
6.55000	2302
6.55833	2420
6.56667	2638
6.57500	3034
6.58333	3715
6.59167	4901
6.60000	6845
6.60833	9884
6.61667	14593
6.62500	21299
6.63333	30516
6.64167	42825
6.65000	57505
6.65833	75050
6.66667	93927
6.67500	112586
6.68333	130352
6.69167	144201
6.70000	153388
6.70833	156997
6.71667	154033
6.72500	145400
6.73333	132406
6.74167	115529
6.75000	97643
6.75833	79496
6.76667	62455
6.77500	47802
6.78333	35347
6.79167	25649
6.80000	18267
6.80833	12896
6.81667	9185
6.82500	6669
6.83333	5053
6.84167	4040
6.85000	3429
6.85833	3075
6.86667	2877
6.87500	2773
6.88333	2723
6.89167	2701
6.90000	2691
6.90833	2686
6.91667	2678
6.92500	2667
6.93333	2655
6.94167	2643
6.95000	2637
6.95833	2642
6.96667	2666
6.97500	2725
6.98333	2829
6.99167	3000
7.00000	3266
7.00833	3632
7.01667	4130
7.02500	4747
7.03333	5447
7.04167	6226
7.05000	6959
7.05833	7599
7.06667	8074
7.07500	8286
7.08333	8236
7.09167	7942
7.10000	7407
7.10833	6746
7.11667	6020
7.12500	5285
7.13333	4635
7.14167	4072
7.15000	3633
7.15833	3313
7.16667	3094
7.17500	2964
7.18333	2902
7.19167	2886
7.20000	2901
7.20833	2927
7.21667	2951
7.22500	2966
7.23333	2967
7.24167	2952
7.25000	2930
7.25833	2903
7.26667	2879
7.27500	2868
7.28333	2871
7.29167	2893
7.30000	2937
7.30833	3001
7.31667	3086
7.32500	3190
7.33333	3311
7.34167	3451
7.35000	3602
7.35833	3767
7.36667	3939
7.37500	4114
7.38333	4292
7.39167	4464
7.40000	4633
7.40833	4790
7.41667	4935
7.42500	5067
7.43333	5181
7.44167	5280
7.45000	5362
7.45833	5428
7.46667	5478
7.47500	5513
7.48333	5532
7.49167	5532
7.50000	5512
7.50833	5466
7.51667	5389
7.52500	5278
7.53333	5135
7.54167	4953
7.55000	4751
7.55833	4526
7.56667	4296
7.57500	4080
7.58333	3882
7.59167	3732
7.60000	3637
7.60833	3609
7.61667	3661
7.62500	3789
7.63333	3988
7.64167	4259
7.65000	4560
7.65833	4885
7.66667	5192
7.67500	5434
7.68333	5598
7.69167	5649
7.70000	5575
7.70833	5396
7.71667	5120
7.72500	4777
7.73333	4414
7.74167	4041
7.75000	3703
7.75833	3410
7.76667	3171
7.77500	2996
7.78333	2874
7.79167	2804
7.80000	2778
7.80833	2786
7.81667	2822
7.82500	2876
7.83333	2940
7.84167	3011
7.85000	3082
7.85833	3152
7.86667	3220
7.87500	3288
7.88333	3359
7.89167	3431
7.90000	3509
7.90833	3586
7.91667	3659
7.92500	3724
7.93333	3771
7.94167	3798
7.95000	3799
7.95833	3773
7.96667	3725
7.97500	3657
7.98333	3575
7.99167	3490
8.00000	3406

[LC Chromatogram(Detector A-Ch2)]
Interval(msec)	500
# of Points	961
Start Time(min)	0.000
End Time(min)	8.000
Intensity Units	mAU
Intensity Multiplier	0.001
Wavelength(nm)	220nm
R.Time (min)	Intensity
0.00000	177
0.00833	177
0.01667	69
0.02500	-17
0.03333	-43
0.04167	-68
0.05000	-85
0.05833	-91
0.06667	-79
0.07500	-55
0.08333	-27
0.09167	-2
0.10000	12
0.10833	7
0.11667	-8
0.12500	-17
0.13333	-16
0.14167	-8
0.15000	5
0.15833	16
0.16667	17
0.17500	11
0.18333	6
0.19167	7
0.20000	14
0.20833	27
0.21667	41
0.22500	47
0.23333	43
0.24167	38
0.25000	37
0.25833	43
0.26667	60
0.27500	85
0.28333	107
0.29167	125
0.30000	145
0.30833	172
0.31667	202
0.32500	229
0.33333	248
0.34167	260
0.35000	263
0.35833	263
0.36667	261
0.37500	254
0.38333	227
0.39167	165
0.40000	41
0.40833	-175
0.41667	-373
0.42500	-375
0.43333	-148
0.44167	208
0.45000	641
0.45833	991
0.46667	1109
0.47500	1033
0.48333	915
0.49167	828
0.50000	812
0.50833	885
0.51667	1012
0.52500	1142
0.53333	1286
0.54167	1538
0.55000	1987
0.55833	2723
0.56667	3882
0.57500	5089
0.58333	5333
0.59167	4224
0.60000	2084
0.60833	-928
0.61667	-4016
0.62500	-6055
0.63333	-6873
0.64167	-6796
0.65000	-6063
0.65833	-5037
0.66667	-3965
0.67500	-2947
0.68333	-2107
0.69167	-1438
0.70000	-949
0.70833	-620
0.71667	-408
0.72500	-273
0.73333	-183
0.74167	-125
0.75000	-87
0.75833	-65
0.76667	-55
0.77500	-51
0.78333	-40
0.79167	-18
0.80000	3
0.80833	12
0.81667	9
0.82500	-8
0.83333	-37
0.84167	-66
0.85000	-91
0.85833	-113
0.86667	-132
0.87500	-150
0.88333	-165
0.89167	-175
0.90000	-179
0.90833	-178
0.91667	-174
0.92500	-170
0.93333	-170
0.94167	-168
0.95000	-159
0.95833	-142
0.96667	-112
0.97500	-75
0.98333	-44
0.99167	-23
1.00000	-13
1.00833	-14
1.01667	-21
1.02500	-23
1.03333	-18
1.04167	-5
1.05000	15
1.05833	35
1.06667	48
1.07500	52
1.08333	50
1.09167	44
1.10000	38
1.10833	37
1.11667	39
1.12500	42
1.13333	46
1.14167	52
1.15000	63
1.15833	79
1.16667	101
1.17500	127
1.18333	146
1.19167	154
1.20000	157
1.20833	160
1.21667	165
1.22500	170
1.23333	174
1.24167	167
1.25000	144
1.25833	107
1.26667	60
1.27500	4
1.28333	-53
1.29167	-111
1.30000	-164
1.30833	-212
1.31667	-256
1.32500	-302
1.33333	-354
1.34167	-419
1.35000	-503
1.35833	-602
1.36667	-711
1.37500	-828
1.38333	-939
1.39167	-1047
1.40000	-1147
1.40833	-1242
1.41667	-1341
1.42500	-1454
1.43333	-1586
1.44167	-1727
1.45000	-1878
1.45833	-2030
1.46667	-2182
1.47500	-2340
1.48333	-2514
1.49167	-2718
1.50000	-2937
1.50833	-3173
1.51667	-3417
1.52500	-3659
1.53333	-3906
1.54167	-4155
1.55000	-4419
1.55833	-4690
1.56667	-4965
1.57500	-5254
1.58333	-5550
1.59167	-5871
1.60000	-6205
1.60833	-6562
1.61667	-6935
1.62500	-7305
1.63333	-7685
1.64167	-8064
1.65000	-8461
1.65833	-8867
1.66667	-9283
1.67500	-9716
1.68333	-10145
1.69167	-10587
1.70000	-11021
1.70833	-11453
1.71667	-11881
1.72500	-12294
1.73333	-12711
1.74167	-13117
1.75000	-13533
1.75833	-13946
1.76667	-14354
1.77500	-14760
1.78333	-15141
1.79167	-15508
1.80000	-15853
1.80833	-16188
1.81667	-16518
1.82500	-16837
1.83333	-17162
1.84167	-17494
1.85000	-17857
1.85833	-18252
1.86667	-18693
1.87500	-19180
1.88333	-19673
1.89167	-20184
1.90000	-20688
1.90833	-21194
1.91667	-21700
1.92500	-22192
1.93333	-22684
1.94167	-23137
1.95000	-23557
1.95833	-23942
1.96667	-24296
1.97500	-24642
1.98333	-25000
1.99167	-25404
2.00000	-25862
2.00833	-26408
2.01667	-27034
2.02500	-27719
2.03333	-28473
2.04167	-29216
2.05000	-29949
2.05833	-30623
2.06667	-31203
2.07500	-31690
2.08333	-32038
2.09167	-32264
2.10000	-32427
2.10833	-32585
2.11667	-32802
2.12500	-33160
2.13333	-33685
2.14167	-34286
2.15000	-34941
2.15833	-35539
2.16667	-35976
2.17500	-36210
2.18333	-36155
2.19167	-35754
2.20000	-34933
2.20833	-33545
2.21667	-31479
2.22500	-28500
2.23333	-24399
2.24167	-19236
2.25000	-12672
2.25833	-5002
2.26667	3803
2.27500	13772
2.28333	24389
2.29167	36035
2.30000	47975
2.30833	60336
2.31667	72896
2.32500	85172
2.33333	97532
2.34167	109329
2.35000	120967
2.35833	132157
2.36667	142821
2.37500	151526
2.38333	153491
2.39167	146522
2.40000	130512
2.40833	104251
2.41667	72273
2.42500	41774
2.43333	14606
2.44167	-5968
2.45000	-19556
2.45833	-27534
2.46667	-31268
2.47500	-31965
2.48333	-30403
2.49167	-26919
2.50000	-22103
2.50833	-15992
2.51667	-8904
2.52500	-1203
2.53333	7228
2.54167	15762
2.55000	24604
2.55833	33396
2.56667	42031
2.57500	50650
2.58333	58888
2.59167	67105
2.60000	74970
2.60833	82649
2.61667	90138
2.62500	97257
2.63333	104229
2.64167	110528
2.65000	116163
2.65833	120186
2.66667	121415
2.67500	118900
2.68333	110460
2.69167	94889
2.70000	74690
2.70833	50680
2.71667	25802
2.72500	4524
2.73333	-12607
2.74167	-24839
2.75000	-32691
2.75833	-37439
2.76667	-40247
2.77500	-41951
2.78333	-43109
2.79167	-44057
2.80000	-44859
2.80833	-45553
2.81667	-46147
2.82500	-46614
2.83333	-46982
2.84167	-47262
2.85000	-47484
2.85833	-47666
2.86667	-47823
2.87500	-47965
2.88333	-48085
2.89167	-48187
2.90000	-48260
2.90833	-48298
2.91667	-48305
2.92500	-48284
2.93333	-48240
2.94167	-48180
2.95000	-48104
2.95833	-48019
2.96667	-47930
2.97500	-47840
2.98333	-47768
2.99167	-47717
3.00000	-47698
3.00833	-47719
3.01667	-47773
3.02500	-47854
3.03333	-47957
3.04167	-48064
3.05000	-48173
3.05833	-48274
3.06667	-48363
3.07500	-48437
3.08333	-48492
3.09167	-48526
3.10000	-48539
3.10833	-48529
3.11667	-48503
3.12500	-48469
3.13333	-48427
3.14167	-48376
3.15000	-48310
3.15833	-48216
3.16667	-48073
3.17500	-47866
3.18333	-47579
3.19167	-47188
3.20000	-46708
3.20833	-46123
3.21667	-45474
3.22500	-44832
3.23333	-44220
3.24167	-43762
3.25000	-43513
3.25833	-43490
3.26667	-43732
3.27500	-44196
3.28333	-44779
3.29167	-45452
3.30000	-46104
3.30833	-46687
3.31667	-47182
3.32500	-47556
3.33333	-47831
3.34167	-48024
3.35000	-48159
3.35833	-48257
3.36667	-48337
3.37500	-48410
3.38333	-48474
3.39167	-48531
3.40000	-48581
3.40833	-48626
3.41667	-48664
3.42500	-48689
3.43333	-48703
3.44167	-48709
3.45000	-48709
3.45833	-48706
3.46667	-48695
3.47500	-48667
3.48333	-48604
3.49167	-48493
3.50000	-48321
3.50833	-48054
3.51667	-47598
3.52500	-46900
3.53333	-45934
3.54167	-44510
3.55000	-42322
3.55833	-38997
3.56667	-33879
3.57500	-26332
3.58333	-15412
3.59167	199
3.60000	20764
3.60833	47982
3.61667	81191
3.62500	118888
3.63333	161079
3.64167	201339
3.65000	237829
3.65833	266018
3.66667	280614
3.67500	281301
3.68333	267810
3.69167	240006
3.70000	204097
3.70833	162960
3.71667	120286
3.72500	81605
3.73333	47194
3.74167	19476
3.75000	-1875
3.75833	-17684
3.76667	-28656
3.77500	-36128
3.78333	-40982
3.79167	-44070
3.80000	-45987
3.80833	-47145
3.81667	-47835
3.82500	-48232
3.83333	-48452
3.84167	-48566
3.85000	-48617
3.85833	-48624
3.86667	-48592
3.87500	-48527
3.88333	-48437
3.89167	-48321
3.90000	-48190
3.90833	-48045
3.91667	-47894
3.92500	-47750
3.93333	-47616
3.94167	-47513
3.95000	-47450
3.95833	-47427
3.96667	-47446
3.97500	-47501
3.98333	-47583
3.99167	-47691
4.00000	-47815
4.00833	-47954
4.01667	-48102
4.02500	-48246
4.03333	-48388
4.04167	-48512
4.05000	-48617
4.05833	-48704
4.06667	-48771
4.07500	-48822
4.08333	-48859
4.09167	-48884
4.10000	-48901
4.10833	-48912
4.11667	-48921
4.12500	-48933
4.13333	-48949
4.14167	-48969
4.15000	-48994
4.15833	-49022
4.16667	-49051
4.17500	-49082
4.18333	-49112
4.19167	-49144
4.20000	-49172
4.20833	-49194
4.21667	-49211
4.22500	-49222
4.23333	-49230
4.24167	-49235
4.25000	-49237
4.25833	-49234
4.26667	-49228
4.27500	-49220
4.28333	-49216
4.29167	-49218
4.30000	-49219
4.30833	-49212
4.31667	-49197
4.32500	-49176
4.33333	-49150
4.34167	-49126
4.35000	-49106
4.35833	-49086
4.36667	-49058
4.37500	-49022
4.38333	-48982
4.39167	-48940
4.40000	-48904
4.40833	-48880
4.41667	-48866
4.42500	-48858
4.43333	-48852
4.44167	-48847
4.45000	-48841
4.45833	-48836
4.46667	-48836
4.47500	-48843
4.48333	-48856
4.49167	-48878
4.50000	-48906
4.50833	-48940
4.51667	-48980
4.52500	-49024
4.53333	-49071
4.54167	-49117
4.55000	-49160
4.55833	-49198
4.56667	-49228
4.57500	-49253
4.58333	-49272
4.59167	-49287
4.60000	-49299
4.60833	-49310
4.61667	-49322
4.62500	-49334
4.63333	-49348
4.64167	-49361
4.65000	-49370
4.65833	-49376
4.66667	-49380
4.67500	-49384
4.68333	-49387
4.69167	-49389
4.70000	-49387
4.70833	-49377
4.71667	-49360
4.72500	-49344
4.73333	-49330
4.74167	-49321
4.75000	-49318
4.75833	-49318
4.76667	-49319
4.77500	-49318
4.78333	-49310
4.79167	-49294
4.80000	-49275
4.80833	-49256
4.81667	-49241
4.82500	-49235
4.83333	-49239
4.84167	-49251
4.85000	-49268
4.85833	-49289
4.86667	-49310
4.87500	-49331
4.88333	-49352
4.89167	-49372
4.90000	-49392
4.90833	-49411
4.91667	-49427
4.92500	-49439
4.93333	-49447
4.94167	-49453
4.95000	-49459
4.95833	-49464
4.96667	-49471
4.97500	-49480
4.98333	-49490
4.99167	-49501
5.00000	-49510
5.00833	-49514
5.01667	-49514
5.02500	-49513
5.03333	-49513
5.04167	-49516
5.05000	-49521
5.05833	-49526
5.06667	-49526
5.07500	-49523
5.08333	-49523
5.09167	-49529
5.10000	-49542
5.10833	-49561
5.11667	-49583
5.12500	-49597
5.13333	-49604
5.14167	-49606
5.15000	-49606
5.15833	-49610
5.16667	-49620
5.17500	-49633
5.18333	-49641
5.19167	-49633
5.20000	-49594
5.20833	-49499
5.21667	-49327
5.22500	-49032
5.23333	-48569
5.24167	-47868
5.25000	-46820
5.25833	-45324
5.26667	-43173
5.27500	-40158
5.28333	-36002
5.29167	-30219
5.30000	-22532
5.30833	-12103
5.31667	1482
5.32500	18915
5.33333	41315
5.34167	68301
5.35000	101621
5.35833	140211
5.36667	184266
5.37500	234016
5.38333	286030
5.39167	341616
5.40000	396066
5.40833	448168
5.41667	496120
5.42500	535455
5.43333	566356
5.44167	585724
5.45000	592524
5.45833	587445
5.46667	569820
5.47500	540706
5.48333	503180
5.49167	456789
5.50000	406366
5.50833	352898
5.51667	298331
5.52500	246488
5.53333	196466
5.54167	151799
5.55000	111859
5.55833	77286
5.56667	48641
5.57500	24684
5.58333	5828
5.59167	-9117
5.60000	-20546
5.60833	-29064
5.61667	-35408
5.62500	-39939
5.63333	-43211
5.64167	-45524
5.65000	-47179
5.65833	-48382
5.66667	-49269
5.67500	-49961
5.68333	-50520
5.69167	-51012
5.70000	-51451
5.70833	-51860
5.71667	-52244
5.72500	-52588
5.73333	-52906
5.74167	-53188
5.75000	-53446
5.75833	-53684
5.76667	-53905
5.77500	-54119
5.78333	-54319
5.79167	-54513
5.80000	-54691
5.80833	-54852
5.81667	-54998
5.82500	-55125
5.83333	-55241
5.84167	-55349
5.85000	-55457
5.85833	-55569
5.86667	-55688
5.87500	-55816
5.88333	-55940
5.89167	-56061
5.90000	-56178
5.90833	-56294
5.91667	-56415
5.92500	-56539
5.93333	-56671
5.94167	-56801
5.95000	-56927
5.95833	-57048
5.96667	-57163
5.97500	-57276
5.98333	-57384
5.99167	-57492
6.00000	-57600
6.00833	-57714
6.01667	-57832
6.02500	-57943
6.03333	-58049
6.04167	-58143
6.05000	-58230
6.05833	-58311
6.06667	-58388
6.07500	-58473
6.08333	-58555
6.09167	-58621
6.10000	-58675
6.10833	-58725
6.11667	-58777
6.12500	-58833
6.13333	-58900
6.14167	-58971
6.15000	-59031
6.15833	-59083
6.16667	-59139
6.17500	-59210
6.18333	-59296
6.19167	-59409
6.20000	-59549
6.20833	-59695
6.21667	-59833
6.22500	-59967
6.23333	-60110
6.24167	-60258
6.25000	-60418
6.25833	-60587
6.26667	-60763
6.27500	-60946
6.28333	-61127
6.29167	-61309
6.30000	-61485
6.30833	-61656
6.31667	-61825
6.32500	-61991
6.33333	-62163
6.34167	-62330
6.35000	-62496
6.35833	-62658
6.36667	-62810
6.37500	-62957
6.38333	-63095
6.39167	-63231
6.40000	-63360
6.40833	-63484
6.41667	-63604
6.42500	-63722
6.43333	-63843
6.44167	-63962
6.45000	-64080
6.45833	-64194
6.46667	-64302
6.47500	-64407
6.48333	-64504
6.49167	-64598
6.50000	-64685
6.50833	-64764
6.51667	-64840
6.52500	-64913
6.53333	-64984
6.54167	-65023
6.55000	-65006
6.55833	-64855
6.56667	-64449
6.57500	-63619
6.58333	-61983
6.59167	-59110
6.60000	-54273
6.60833	-46337
6.61667	-34370
6.62500	-16740
6.63333	8165
6.64167	40107
6.65000	81222
6.65833	128804
6.66667	180668
6.67500	235370
6.68333	284547
6.69167	326538
6.70000	355798
6.70833	367907
6.71667	363521
6.72500	342850
6.73333	306726
6.74167	262354
6.75000	211591
6.75833	159727
6.76667	111654
6.77500	67799
6.78333	31668
6.79167	2465
6.80000	-19917
6.80833	-36181
6.81667	-47806
6.82500	-55658
6.83333	-60876
6.84167	-64233
6.85000	-66348
6.85833	-67674
6.86667	-68498
6.87500	-69026
6.88333	-69367
6.89167	-69600
6.90000	-69775
6.90833	-69925
6.91667	-70067
6.92500	-70207
6.93333	-70353
6.94167	-70491
6.95000	-70619
6.95833	-70723
6.96667	-70788
6.97500	-70800
6.98333	-70720
6.99167	-70517
7.00000	-70158
7.00833	-69580
7.01667	-68778
7.02500	-67759
7.03333	-66504
7.04167	-65192
7.05000	-63864
7.05833	-62685
7.06667	-61852
7.07500	-61404
7.08333	-61440
7.09167	-61997
7.10000	-62928
7.10833	-64171
7.11667	-65594
7.12500	-66979
7.13333	-68292
7.14167	-69396
7.15000	-70271
7.15833	-70924
7.16667	-71358
7.17500	-71620
7.18333	-71745
7.19167	-71763
7.20000	-71727
7.20833	-71672
7.21667	-71626
7.22500	-71619
7.23333	-71661
7.24167	-71743
7.25000	-71866
7.25833	-72010
7.26667	-72157
7.27500	-72300
7.28333	-72416
7.29167	-72501
7.30000	-72547
7.30833	-72548
7.31667	-72507
7.32500	-72432
7.33333	-72323
7.34167	-72193
7.35000	-72039
7.35833	-71870
7.36667	-71690
7.37500	-71498
7.38333	-71310
7.39167	-71122
7.40000	-70945
7.40833	-70780
7.41667	-70628
7.42500	-70494
7.43333	-70375
7.44167	-70278
7.45000	-70201
7.45833	-70147
7.46667	-70119
7.47500	-70116
7.48333	-70134
7.49167	-70175
7.50000	-70238
7.50833	-70328
7.51667	-70449
7.52500	-70607
7.53333	-70809
7.54167	-71038
7.55000	-71295
7.55833	-71561
7.56667	-71815
7.57500	-72055
7.58333	-72258
7.59167	-72425
7.60000	-72543
7.60833	-72602
7.61667	-72599
7.62500	-72518
7.63333	-72353
7.64167	-72120
7.65000	-71816
7.65833	-71475
7.66667	-71135
7.67500	-70812
7.68333	-70569
7.69167	-70422
7.70000	-70389
7.70833	-70491
7.71667	-70707
7.72500	-71008
7.73333	-71385
7.74167	-71773
7.75000	-72152
7.75833	-72492
7.76667	-72757
7.77500	-72945
7.78333	-73036
7.79167	-73026
7.80000	-72924
7.80833	-72725
7.81667	-72450
7.82500	-72133
7.83333	-71781
7.84167	-71445
7.85000	-71138
7.85833	-70882
7.86667	-70701
7.87500	-70590
7.88333	-70547
7.89167	-70565
7.90000	-70625
7.90833	-70717
7.91667	-70828
7.92500	-70947
7.93333	-71075
7.94167	-71209
7.95000	-71358
7.95833	-71521
7.96667	-71705
7.97500	-71911
7.98333	-72125
7.99167	-72348
8.00000	-72563

